##TITLE=No Description
##DATA TYPE=INFRARED SPECTRUM
##XUNITS=1/CM
##YUNITS=%T
399.460154  	37.998964 
400.897061  	37.014338 
402.333968  	38.446496 
403.770875  	38.198863 
405.207782  	38.079830 
406.644689  	38.357670 
408.081596  	37.521687 
409.518503  	38.088166 
410.955410  	38.420084 
412.392317  	38.211293 
413.829224  	38.782708 
415.266131  	37.740883 
416.703038  	37.181185 
418.139945  	37.840883 
419.576852  	36.734044 
421.013759  	36.710416 
422.450666  	36.669564 
423.887574  	36.240397 
425.324481  	36.865894 
426.761388  	36.705586 
428.198295  	36.567039 
429.635202  	36.755906 
431.072109  	36.422271 
432.509016  	37.076908 
433.945923  	37.195743 
435.382830  	36.282263 
436.819737  	36.778579 
438.256644  	37.125863 
439.693551  	37.078004 
441.130458  	37.287211 
442.567365  	36.823246 
444.004272  	36.951790 
445.441179  	36.989018 
446.878086  	36.383880 
448.314993  	36.513074 
449.751900  	36.344536 
451.188807  	36.325239 
452.625714  	36.981285 
454.062621  	36.692717 
455.499528  	36.413798 
456.936435  	36.239402 
458.373342  	35.808488 
459.810249  	36.480023 
461.247156  	36.676020 
462.684063  	36.583998 
464.120970  	37.034365 
465.557877  	37.004724 
466.994784  	36.844723 
468.431691  	36.873435 
469.868598  	36.472522 
471.305505  	36.300145 
472.742413  	36.376911 
474.179320  	36.479342 
475.616227  	36.518379 
477.053134  	36.109526 
478.490041  	36.002472 
479.926948  	36.161910 
481.363855  	36.025787 
482.800762  	35.927044 
484.237669  	35.697343 
485.674576  	35.711547 
487.111483  	36.064604 
488.548390  	36.026673 
489.985297  	36.064790 
491.422204  	36.270400 
492.859111  	36.188880 
494.296018  	36.111994 
495.732925  	35.985726 
497.169832  	35.972199 
498.606739  	36.071816 
500.043646  	35.991380 
501.480553  	36.077472 
502.917460  	36.062297 
504.354367  	35.758143 
505.791274  	35.710497 
507.228181  	35.734113 
508.665088  	35.892148 
510.101995  	36.143331 
511.538902  	36.096901 
512.975809  	36.154667 
514.412716  	36.191725 
515.849623  	35.960145 
517.286530  	35.995987 
518.723437  	36.159533 
520.160344  	36.256752 
521.597251  	36.282655 
523.034159  	36.143400 
524.471066  	36.295532 
525.907973  	36.493800 
527.344880  	36.338410 
528.781787  	36.366854 
530.218694  	36.421676 
531.655601  	36.424689 
533.092508  	36.536378 
534.529415  	36.482990 
535.966322  	36.527055 
537.403229  	36.712986 
538.840136  	36.739227 
540.277043  	36.759933 
541.713950  	36.657610 
543.150857  	36.590924 
544.587764  	36.777306 
546.024671  	36.793426 
547.461578  	36.779006 
548.898485  	36.927977 
550.335392  	36.953016 
551.772299  	36.986043 
553.209206  	37.032966 
554.646113  	37.051573 
556.083020  	37.173406 
557.519927  	37.225893 
558.956834  	37.233970 
560.393741  	37.262415 
561.830648  	37.287075 
563.267555  	37.419195 
564.704462  	37.508730 
566.141369  	37.577737 
567.578276  	37.706831 
569.015183  	37.719095 
570.452090  	37.762524 
571.888997  	37.860839 
573.325905  	37.925534 
574.762812  	38.087226 
576.199719  	38.148536 
577.636626  	38.155349 
579.073533  	38.335968 
580.510440  	38.442033 
581.947347  	38.489304 
583.384254  	38.557743 
584.821161  	38.542338 
586.258068  	38.622139 
587.694975  	38.729383 
589.131882  	38.793211 
590.568789  	38.925260 
592.005696  	38.956016 
593.442603  	38.974313 
594.879510  	39.108440 
596.316417  	39.227645 
597.753324  	39.403160 
599.190231  	39.486398 
600.627138  	39.428452 
602.064045  	39.548757 
603.500952  	39.717180 
604.937859  	39.790791 
606.374766  	39.877778 
607.811673  	39.954972 
609.248580  	40.118577 
610.685487  	40.336870 
612.122394  	40.461312 
613.559301  	40.558570 
614.996208  	40.633075 
616.433115  	40.726773 
617.870022  	40.867381 
619.306929  	40.971427 
620.743836  	41.111311 
622.180744  	41.274739 
623.617651  	41.390225 
625.054558  	41.520294 
626.491465  	41.624894 
627.928372  	41.688205 
629.365279  	41.796645 
630.802186  	41.929380 
632.239093  	42.053705 
633.676000  	42.151672 
635.112907  	42.206695 
636.549814  	42.377349 
637.986721  	42.602552 
639.423628  	42.764934 
640.860535  	42.912522 
642.297442  	43.031355 
643.734349  	43.142971 
645.171256  	43.253076 
646.608163  	43.376925 
648.045070  	43.555879 
649.481977  	43.723211 
650.918884  	43.848067 
652.355791  	44.024795 
653.792698  	44.190725 
655.229605  	44.315081 
656.666512  	44.443068 
658.103419  	44.583350 
659.540326  	44.762922 
660.977233  	44.922341 
662.414140  	45.065307 
663.851047  	45.227748 
665.287954  	45.259805 
666.724861  	45.346981 
668.161768  	45.622313 
669.598675  	45.880399 
671.035582  	46.010413 
672.472490  	46.164888 
673.909397  	46.308813 
675.346304  	46.454581 
676.783211  	46.632051 
678.220118  	46.815863 
679.657025  	47.002578 
681.093932  	47.166945 
682.530839  	47.302493 
683.967746  	47.463751 
685.404653  	47.659341 
686.841560  	47.834187 
688.278467  	47.987068 
689.715374  	48.171447 
691.152281  	48.360247 
692.589188  	48.534935 
694.026095  	48.740464 
695.463002  	48.948556 
696.899909  	49.117380 
698.336816  	49.326123 
699.773723  	49.547755 
701.210630  	49.726396 
702.647537  	49.882275 
704.084444  	50.073600 
705.521351  	50.283924 
706.958258  	50.489903 
708.395165  	50.696093 
709.832072  	50.898082 
711.268979  	51.065208 
712.705886  	51.231909 
714.142793  	51.407910 
715.579700  	51.579578 
717.016607  	51.800203 
718.453514  	52.020578 
719.890421  	52.216536 
721.327328  	52.450708 
722.764236  	52.678857 
724.201143  	52.876227 
725.638050  	53.080339 
727.074957  	53.268537 
728.511864  	53.441166 
729.948771  	53.659961 
731.385678  	53.883158 
732.822585  	54.103628 
734.259492  	54.335420 
735.696399  	54.561013 
737.133306  	54.775679 
738.570213  	54.957213 
740.007120  	55.144775 
741.444027  	55.400193 
742.880934  	55.669765 
744.317841  	55.894072 
745.754748  	56.088067 
747.191655  	56.284136 
748.628562  	56.496126 
750.065469  	56.719827 
751.502376  	56.973696 
752.939283  	57.237439 
754.376190  	57.434785 
755.813097  	57.596889 
757.250004  	57.816457 
758.686911  	58.048488 
760.123818  	58.236504 
761.560725  	58.463342 
762.997632  	58.747866 
764.434539  	58.996722 
765.871446  	59.221631 
767.308353  	59.441625 
768.745260  	59.620914 
770.182167  	59.851563 
771.619075  	60.154771 
773.055982  	60.380615 
774.492889  	60.552151 
775.929796  	60.789112 
777.366703  	61.060654 
778.803610  	61.318375 
780.240517  	61.540425 
781.677424  	61.722612 
783.114331  	61.939626 
784.551238  	62.214666 
785.988145  	62.471934 
787.425052  	62.687197 
788.861959  	62.922571 
790.298866  	63.205937 
791.735773  	63.472324 
793.172680  	63.691969 
794.609587  	63.917892 
796.046494  	64.152565 
797.483401  	64.370808 
798.920308  	64.596354 
800.357215  	64.834803 
801.794122  	65.090098 
803.231029  	65.371075 
804.667936  	65.616640 
806.104843  	65.811125 
807.541750  	66.040084 
808.978657  	66.316448 
810.415564  	66.601496 
811.852471  	66.887186 
813.289378  	67.129226 
814.726285  	67.336110 
816.163192  	67.581796 
817.600099  	67.832087 
819.037006  	68.056916 
820.473913  	68.325350 
821.910821  	68.623457 
823.347728  	68.879414 
824.784635  	69.099145 
826.221542  	69.322642 
827.658449  	69.568136 
829.095356  	69.829326 
830.532263  	70.087447 
831.969170  	70.327175 
833.406077  	70.550572 
834.842984  	70.794676 
836.279891  	71.056739 
837.716798  	71.280652 
839.153705  	71.508410 
840.590612  	71.817786 
842.027519  	72.125387 
843.464426  	72.343312 
844.901333  	72.555598 
846.338240  	72.821443 
847.775147  	73.084582 
849.212054  	73.326861 
850.648961  	73.572371 
852.085868  	73.817825 
853.522775  	74.048499 
854.959682  	74.275852 
856.396589  	74.531268 
857.833496  	74.791563 
859.270403  	75.026982 
860.707310  	75.270299 
862.144217  	75.522956 
863.581124  	75.766787 
865.018031  	75.999973 
866.454938  	76.210497 
867.891845  	76.437226 
869.328752  	76.679873 
870.765660  	76.895566 
872.202567  	77.132028 
873.639474  	77.378731 
875.076381  	77.604485 
876.513288  	77.855955 
877.950195  	78.086458 
879.387102  	78.299528 
880.824009  	78.551651 
882.260916  	78.759392 
883.697823  	78.945096 
885.134730  	79.169470 
886.571637  	79.354162 
888.008544  	79.530494 
889.445451  	79.743489 
890.882358  	79.944130 
892.319265  	80.141018 
893.756172  	80.332402 
895.193079  	80.519614 
896.629986  	80.721243 
898.066893  	80.920467 
899.503800  	81.132364 
900.940707  	81.351545 
902.377614  	81.557191 
903.814521  	81.729086 
905.251428  	81.850662 
906.688335  	82.026828 
908.125242  	82.255104 
909.562149  	82.405937 
910.999056  	82.555093 
912.435963  	82.751689 
913.872870  	82.920836 
915.309777  	83.074280 
916.746684  	83.215158 
918.183591  	83.393046 
919.620498  	83.613258 
921.057406  	83.748285 
922.494313  	83.856980 
923.931220  	84.023411 
925.368127  	84.182655 
926.805034  	84.333842 
928.241941  	84.466728 
929.678848  	84.592977 
931.115755  	84.738168 
932.552662  	84.833607 
933.989569  	84.922122 
935.426476  	85.036793 
936.863383  	85.122655 
938.300290  	85.237296 
939.737197  	85.371103 
941.174104  	85.468706 
942.611011  	85.553389 
944.047918  	85.621138 
945.484825  	85.727296 
946.921732  	85.867291 
948.358639  	85.968899 
949.795546  	86.099209 
951.232453  	86.256384 
952.669360  	86.403230 
954.106267  	86.557601 
955.543174  	86.643606 
956.980081  	86.707351 
958.416988  	86.818444 
959.853895  	86.907703 
961.290802  	87.005069 
962.727709  	87.100173 
964.164616  	87.162664 
965.601523  	87.261263 
967.038430  	87.347975 
968.475337  	87.418765 
969.912244  	87.507533 
971.349152  	87.559849 
972.786059  	87.638976 
974.222966  	87.737748 
975.659873  	87.794573 
977.096780  	87.880078 
978.533687  	87.956013 
979.970594  	88.018530 
981.407501  	88.117234 
982.844408  	88.173036 
984.281315  	88.229063 
985.718222  	88.309863 
987.155129  	88.361730 
988.592036  	88.442779 
990.028943  	88.486180 
991.465850  	88.483276 
992.902757  	88.555535 
994.339664  	88.622530 
995.776571  	88.665371 
997.213478  	88.731038 
998.650385  	88.759278 
1000.087292  	88.800646 
1001.524199  	88.852896 
1002.961106  	88.871138 
1004.398013  	88.923779 
1005.834920  	88.975488 
1007.271827  	89.007800 
1008.708734  	89.069625 
1010.145641  	89.132721 
1011.582548  	89.190589 
1013.019455  	89.212709 
1014.456362  	89.217301 
1015.893269  	89.270191 
1017.330176  	89.311746 
1018.767083  	89.349295 
1020.203991  	89.388950 
1021.640898  	89.371768 
1023.077805  	89.392413 
1024.514712  	89.440528 
1025.951619  	89.445649 
1027.388526  	89.487654 
1028.825433  	89.525693 
1030.262340  	89.539031 
1031.699247  	89.578189 
1033.136154  	89.587242 
1034.573061  	89.613452 
1036.009968  	89.658294 
1037.446875  	89.644458 
1038.883782  	89.655119 
1040.320689  	89.697318 
1041.757596  	89.734278 
1043.194503  	89.773018 
1044.631410  	89.758123 
1046.068317  	89.769890 
1047.505224  	89.831804 
1048.942131  	89.840227 
1050.379038  	89.863896 
1051.815945  	89.882715 
1053.252852  	89.830662 
1054.689759  	89.823871 
1056.126666  	89.867372 
1057.563573  	89.911288 
1059.000480  	89.957165 
1060.437387  	89.968249 
1061.874294  	89.978436 
1063.311201  	89.998739 
1064.748108  	90.016235 
1066.185015  	90.051850 
1067.621922  	90.058746 
1069.058829  	90.053736 
1070.495737  	90.066394 
1071.932644  	90.063380 
1073.369551  	90.075729 
1074.806458  	90.088550 
1076.243365  	90.096884 
1077.680272  	90.127777 
1079.117179  	90.124045 
1080.554086  	90.132318 
1081.990993  	90.162514 
1083.427900  	90.127230 
1084.864807  	90.108078 
1086.301714  	90.121739 
1087.738621  	90.117146 
1089.175528  	90.140268 
1090.612435  	90.143664 
1092.049342  	90.134585 
1093.486249  	90.156805 
1094.923156  	90.143952 
1096.360063  	90.138354 
1097.796970  	90.161177 
1099.233877  	90.170979 
1100.670784  	90.203135 
1102.107691  	90.209623 
1103.544598  	90.186636 
1104.981505  	90.187458 
1106.418412  	90.179408 
1107.855319  	90.204112 
1109.292226  	90.242516 
1110.729133  	90.229709 
1112.166040  	90.248989 
1113.602947  	90.279779 
1115.039854  	90.269394 
1116.476761  	90.274855 
1117.913668  	90.276316 
1119.350575  	90.266231 
1120.787483  	90.257947 
1122.224390  	90.242966 
1123.661297  	90.247970 
1125.098204  	90.235755 
1126.535111  	90.216960 
1127.972018  	90.241651 
1129.408925  	90.252519 
1130.845832  	90.259316 
1132.282739  	90.282204 
1133.719646  	90.281647 
1135.156553  	90.286533 
1136.593460  	90.287210 
1138.030367  	90.279448 
1139.467274  	90.289536 
1140.904181  	90.290264 
1142.341088  	90.310725 
1143.777995  	90.328455 
1145.214902  	90.303368 
1146.651809  	90.307046 
1148.088716  	90.304509 
1149.525623  	90.275875 
1150.962530  	90.275632 
1152.399437  	90.260416 
1153.836344  	90.269129 
1155.273251  	90.290671 
1156.710158  	90.240814 
1158.147065  	90.230640 
1159.583972  	90.251093 
1161.020879  	90.214827 
1162.457786  	90.208577 
1163.894693  	90.206478 
1165.331600  	90.194785 
1166.768507  	90.227070 
1168.205414  	90.229410 
1169.642322  	90.235923 
1171.079229  	90.269779 
1172.516136  	90.257793 
1173.953043  	90.263480 
1175.389950  	90.267554 
1176.826857  	90.225360 
1178.263764  	90.226555 
1179.700671  	90.241960 
1181.137578  	90.230293 
1182.574485  	90.218959 
1184.011392  	90.198816 
1185.448299  	90.202366 
1186.885206  	90.214515 
1188.322113  	90.212350 
1189.759020  	90.227182 
1191.195927  	90.218823 
1192.632834  	90.212290 
1194.069741  	90.237832 
1195.506648  	90.219386 
1196.943555  	90.193553 
1198.380462  	90.205158 
1199.817369  	90.213458 
1201.254276  	90.216767 
1202.691183  	90.194605 
1204.128090  	90.169018 
1205.564997  	90.177182 
1207.001904  	90.176374 
1208.438811  	90.174197 
1209.875718  	90.165438 
1211.312625  	90.130750 
1212.749532  	90.131767 
1214.186439  	90.156053 
1215.623346  	90.165623 
1217.060253  	90.169226 
1218.497160  	90.150491 
1219.934068  	90.147056 
1221.370975  	90.164253 
1222.807882  	90.150357 
1224.244789  	90.133018 
1225.681696  	90.122669 
1227.118603  	90.114476 
1228.555510  	90.123928 
1229.992417  	90.121764 
1231.429324  	90.113502 
1232.866231  	90.106541 
1234.303138  	90.096489 
1235.740045  	90.110664 
1237.176952  	90.103218 
1238.613859  	90.069897 
1240.050766  	90.069030 
1241.487673  	90.051983 
1242.924580  	90.023418 
1244.361487  	90.039019 
1245.798394  	90.038886 
1247.235301  	90.001928 
1248.672208  	89.975604 
1250.109115  	89.966508 
1251.546022  	89.961757 
1252.982929  	89.956433 
1254.419836  	89.963284 
1255.856743  	89.966237 
1257.293650  	89.946757 
1258.730557  	89.935884 
1260.167464  	89.925139 
1261.604371  	89.900990 
1263.041278  	89.889462 
1264.478185  	89.884984 
1265.915092  	89.881342 
1267.351999  	89.876506 
1268.788907  	89.873141 
1270.225814  	89.876162 
1271.662721  	89.856901 
1273.099628  	89.839039 
1274.536535  	89.834778 
1275.973442  	89.801935 
1277.410349  	89.784908 
1278.847256  	89.789521 
1280.284163  	89.773088 
1281.721070  	89.781885 
1283.157977  	89.800937 
1284.594884  	89.804430 
1286.031791  	89.821593 
1287.468698  	89.822847 
1288.905605  	89.830183 
1290.342512  	89.852060 
1291.779419  	89.844012 
1293.216326  	89.853155 
1294.653233  	89.855551 
1296.090140  	89.824333 
1297.527047  	89.837996 
1298.963954  	89.861144 
1300.400861  	89.874708 
1301.837768  	89.889211 
1303.274675  	89.897063 
1304.711582  	89.902475 
1306.148489  	89.922577 
1307.585396  	89.926954 
1309.022303  	89.943118 
1310.459210  	89.943959 
1311.896117  	89.937620 
1313.333024  	89.950829 
1314.769931  	89.964615 
1316.206838  	89.962617 
1317.643745  	89.965405 
1319.080653  	89.961198 
1320.517560  	89.971538 
1321.954467  	89.976084 
1323.391374  	89.979826 
1324.828281  	89.986801 
1326.265188  	89.982271 
1327.702095  	89.967319 
1329.139002  	89.975236 
1330.575909  	89.978724 
1332.012816  	89.973046 
1333.449723  	89.955900 
1334.886630  	89.920955 
1336.323537  	89.909198 
1337.760444  	89.885848 
1339.197351  	89.846170 
1340.634258  	89.850359 
1342.071165  	89.861970 
1343.508072  	89.860572 
1344.944979  	89.840522 
1346.381886  	89.812066 
1347.818793  	89.795565 
1349.255700  	89.777554 
1350.692607  	89.741778 
1352.129514  	89.723055 
1353.566421  	89.700500 
1355.003328  	89.681766 
1356.440235  	89.658777 
1357.877142  	89.632941 
1359.314049  	89.622287 
1360.750956  	89.590175 
1362.187863  	89.529039 
1363.624770  	89.501696 
1365.061677  	89.474317 
1366.498584  	89.452543 
1367.935491  	89.405775 
1369.372399  	89.338301 
1370.809306  	89.280929 
1372.246213  	89.218571 
1373.683120  	89.127787 
1375.120027  	89.075122 
1376.556934  	89.039241 
1377.993841  	88.979476 
1379.430748  	88.926934 
1380.867655  	88.866129 
1382.304562  	88.834449 
1383.741469  	88.812932 
1385.178376  	88.781815 
1386.615283  	88.737751 
1388.052190  	88.721388 
1389.489097  	88.718898 
1390.926004  	88.726572 
1392.362911  	88.755861 
1393.799818  	88.791016 
1395.236725  	88.815502 
1396.673632  	88.838092 
1398.110539  	88.859632 
1399.547446  	88.906637 
1400.984353  	88.952493 
1402.421260  	89.006438 
1403.858167  	89.029388 
1405.295074  	89.048912 
1406.731981  	89.091137 
1408.168888  	89.112872 
1409.605795  	89.134448 
1411.042702  	89.168888 
1412.479609  	89.194143 
1413.916516  	89.230942 
1415.353423  	89.255529 
1416.790330  	89.272657 
1418.227238  	89.304195 
1419.664145  	89.340551 
1421.101052  	89.394056 
1422.537959  	89.422129 
1423.974866  	89.437436 
1425.411773  	89.477002 
1426.848680  	89.508630 
1428.285587  	89.495925 
1429.722494  	89.488919 
1431.159401  	89.504497 
1432.596308  	89.554253 
1434.033215  	89.571516 
1435.470122  	89.553861 
1436.907029  	89.545958 
1438.343936  	89.538292 
1439.780843  	89.544831 
1441.217750  	89.582223 
1442.654657  	89.606598 
1444.091564  	89.622614 
1445.528471  	89.610940 
1446.965378  	89.580429 
1448.402285  	89.567226 
1449.839192  	89.560149 
1451.276099  	89.553554 
1452.713006  	89.573626 
1454.149913  	89.560238 
1455.586820  	89.527807 
1457.023727  	89.520993 
1458.460634  	89.503485 
1459.897541  	89.510125 
1461.334448  	89.503652 
1462.771355  	89.498255 
1464.208262  	89.499870 
1465.645169  	89.455635 
1467.082076  	89.433731 
1468.518984  	89.424099 
1469.955891  	89.404153 
1471.392798  	89.405917 
1472.829705  	89.374785 
1474.266612  	89.350457 
1475.703519  	89.372405 
1477.140426  	89.367159 
1478.577333  	89.362605 
1480.014240  	89.342802 
1481.451147  	89.288062 
1482.888054  	89.267556 
1484.324961  	89.258286 
1485.761868  	89.231125 
1487.198775  	89.211728 
1488.635682  	89.157271 
1490.072589  	89.098717 
1491.509496  	89.089158 
1492.946403  	89.077454 
1494.383310  	89.082369 
1495.820217  	89.054979 
1497.257124  	88.979039 
1498.694031  	88.924091 
1500.130938  	88.872985 
1501.567845  	88.835418 
1503.004752  	88.821164 
1504.441659  	88.776727 
1505.878566  	88.755524 
1507.315473  	88.700712 
1508.752380  	88.589409 
1510.189287  	88.584092 
1511.626194  	88.541421 
1513.063101  	88.487563 
1514.500008  	88.448777 
1515.936915  	88.365001 
1517.373822  	88.284886 
1518.810730  	88.231127 
1520.247637  	88.147459 
1521.684544  	88.093166 
1523.121451  	88.046798 
1524.558358  	87.997232 
1525.995265  	87.964783 
1527.432172  	87.868688 
1528.869079  	87.814122 
1530.305986  	87.753395 
1531.742893  	87.612787 
1533.179800  	87.512988 
1534.616707  	87.409098 
1536.053614  	87.286417 
1537.490521  	87.204858 
1538.927428  	87.065974 
1540.364335  	86.960609 
1541.801242  	86.893248 
1543.238149  	86.695181 
1544.675056  	86.578560 
1546.111963  	86.459872 
1547.548870  	86.318466 
1548.985777  	86.180962 
1550.422684  	85.982397 
1551.859591  	85.809707 
1553.296498  	85.685605 
1554.733405  	85.472654 
1556.170312  	85.331358 
1557.607219  	85.203155 
1559.044126  	84.925914 
1560.481033  	84.823023 
1561.917940  	84.662471 
1563.354847  	84.496430 
1564.791754  	84.414783 
1566.228661  	84.221587 
1567.665569  	84.084379 
1569.102476  	83.970229 
1570.539383  	83.731021 
1571.976290  	83.602474 
1573.413197  	83.408281 
1574.850104  	83.226073 
1576.287011  	83.101484 
1577.723918  	82.900075 
1579.160825  	82.727462 
1580.597732  	82.582580 
1582.034639  	82.396900 
1583.471546  	82.248163 
1584.908453  	82.035442 
1586.345360  	81.768681 
1587.782267  	81.589318 
1589.219174  	81.350063 
1590.656081  	81.100462 
1592.092988  	80.865902 
1593.529895  	80.560817 
1594.966802  	80.304261 
1596.403709  	80.028387 
1597.840616  	79.712738 
1599.277523  	79.454641 
1600.714430  	79.056891 
1602.151337  	78.641310 
1603.588244  	78.279296 
1605.025151  	77.829628 
1606.462058  	77.416796 
1607.898965  	76.996861 
1609.335872  	76.505454 
1610.772779  	76.093853 
1612.209686  	75.647782 
1613.646593  	75.168469 
1615.083500  	74.782679 
1616.520407  	74.248933 
1617.957315  	73.811948 
1619.394222  	73.421454 
1620.831129  	72.876794 
1622.268036  	72.516554 
1623.704943  	72.175958 
1625.141850  	71.727775 
1626.578757  	71.448043 
1628.015664  	71.115316 
1629.452571  	70.890361 
1630.889478  	70.722297 
1632.326385  	70.408020 
1633.763292  	70.261344 
1635.200199  	70.274229 
1636.637106  	70.338711 
1638.074013  	70.428294 
1639.510920  	70.333529 
1640.947827  	70.388628 
1642.384734  	70.624039 
1643.821641  	70.674953 
1645.258548  	70.781391 
1646.695455  	71.096362 
1648.132362  	71.464673 
1649.569269  	71.805387 
1651.006176  	71.921459 
1652.443083  	72.081738 
1653.879990  	73.306090 
1655.316897  	73.395573 
1656.753804  	73.528061 
1658.190711  	73.934186 
1659.627618  	74.265230 
1661.064525  	74.651713 
1662.501432  	75.105984 
1663.938339  	75.578946 
1665.375246  	76.029597 
1666.812154  	76.384834 
1668.249061  	76.785983 
1669.685968  	77.360908 
1671.122875  	77.839396 
1672.559782  	78.241305 
1673.996689  	78.638831 
1675.433596  	79.101749 
1676.870503  	79.646975 
1678.307410  	80.004839 
1679.744317  	80.398464 
1681.181224  	80.935452 
1682.618131  	81.307319 
1684.055038  	81.759926 
1685.491945  	82.450382 
1686.928852  	82.733419 
1688.365759  	83.120288 
1689.802666  	83.591872 
1691.239573  	83.998087 
1692.676480  	84.419710 
1694.113387  	84.690929 
1695.550294  	84.986069 
1696.987201  	85.478380 
1698.424108  	85.710158 
1699.861015  	85.988543 
1701.297922  	86.509840 
1702.734829  	86.751993 
1704.171736  	87.045479 
1705.608643  	87.353779 
1707.045550  	87.667155 
1708.482457  	88.011237 
1709.919364  	88.246463 
1711.356271  	88.507675 
1712.793178  	88.825082 
1714.230085  	89.041391 
1715.666992  	89.316968 
1717.103900  	89.615849 
1718.540807  	89.895080 
1719.977714  	90.229877 
1721.414621  	90.447758 
1722.851528  	90.670195 
1724.288435  	90.948969 
1725.725342  	91.152892 
1727.162249  	91.393499 
1728.599156  	91.560184 
1730.036063  	91.683011 
1731.472970  	91.831395 
1732.909877  	91.929793 
1734.346784  	92.038211 
1735.783691  	92.254172 
1737.220598  	92.352849 
1738.657505  	92.489411 
1740.094412  	92.643236 
1741.531319  	92.730660 
1742.968226  	92.852805 
1744.405133  	92.941158 
1745.842040  	93.061137 
1747.278947  	93.235638 
1748.715854  	93.302862 
1750.152761  	93.386189 
1751.589668  	93.543620 
1753.026575  	93.615009 
1754.463482  	93.739329 
1755.900389  	93.822203 
1757.337296  	93.871567 
1758.774203  	93.985117 
1760.211110  	94.043264 
1761.648017  	94.096065 
1763.084924  	94.171506 
1764.521831  	94.215479 
1765.958738  	94.308796 
1767.395646  	94.368441 
1768.832553  	94.394021 
1770.269460  	94.484007 
1771.706367  	94.511636 
1773.143274  	94.508947 
1774.580181  	94.601316 
1776.017088  	94.647037 
1777.453995  	94.712140 
1778.890902  	94.769906 
1780.327809  	94.775714 
1781.764716  	94.826201 
1783.201623  	94.871095 
1784.638530  	94.905693 
1786.075437  	94.985228 
1787.512344  	95.013675 
1788.949251  	95.028436 
1790.386158  	95.089235 
1791.823065  	95.110286 
1793.259972  	95.167840 
1794.696879  	95.151817 
1796.133786  	95.161796 
1797.570693  	95.259975 
1799.007600  	95.271285 
1800.444507  	95.297327 
1801.881414  	95.320794 
1803.318321  	95.273537 
1804.755228  	95.344226 
1806.192135  	95.409774 
1807.629042  	95.434852 
1809.065949  	95.497129 
1810.502856  	95.507607 
1811.939763  	95.518883 
1813.376670  	95.566572 
1814.813577  	95.602806 
1816.250485  	95.654063 
1817.687392  	95.633121 
1819.124299  	95.619513 
1820.561206  	95.673291 
1821.998113  	95.650447 
1823.435020  	95.655658 
1824.871927  	95.713783 
1826.308834  	95.705970 
1827.745741  	95.745359 
1829.182648  	95.787358 
1830.619555  	95.785587 
1832.056462  	95.819427 
1833.493369  	95.815940 
1834.930276  	95.805790 
1836.367183  	95.822849 
1837.804090  	95.784940 
1839.240997  	95.795469 
1840.677904  	95.842094 
1842.114811  	95.863712 
1843.551718  	95.908185 
1844.988625  	95.875154 
1846.425532  	95.869329 
1847.862439  	95.935497 
1849.299346  	95.941100 
1850.736253  	95.984725 
1852.173160  	96.010422 
1853.610067  	95.933033 
1855.046974  	95.950081 
1856.483881  	95.908268 
1857.920788  	95.871001 
1859.357695  	95.962106 
1860.794602  	95.941114 
1862.231509  	95.965167 
1863.668416  	96.022498 
1865.105323  	95.964544 
1866.542231  	96.037540 
1867.979138  	96.119040 
1869.416045  	96.098822 
1870.852952  	96.135179 
1872.289859  	96.100958 
1873.726766  	96.113374 
1875.163673  	96.106547 
1876.600580  	96.021915 
1878.037487  	96.063985 
1879.474394  	96.084564 
1880.911301  	96.051072 
1882.348208  	96.097051 
1883.785115  	96.078133 
1885.222022  	96.039726 
1886.658929  	96.087517 
1888.095836  	96.086052 
1889.532743  	96.084934 
1890.969650  	96.053498 
1892.406557  	96.017104 
1893.843464  	96.082555 
1895.280371  	96.114163 
1896.717278  	96.111081 
1898.154185  	96.143839 
1899.591092  	96.114304 
1901.027999  	96.171006 
1902.464906  	96.212450 
1903.901813  	96.171739 
1905.338720  	96.170470 
1906.775627  	96.138395 
1908.212534  	96.135387 
1909.649441  	96.186226 
1911.086348  	96.147802 
1912.523255  	96.166482 
1913.960162  	96.193019 
1915.397069  	96.077951 
1916.833977  	96.149994 
1918.270884  	96.201918 
1919.707791  	96.177693 
1921.144698  	96.199007 
1922.581605  	96.193100 
1924.018512  	96.234883 
1925.455419  	96.292447 
1926.892326  	96.223543 
1928.329233  	96.262789 
1929.766140  	96.252999 
1931.203047  	96.175425 
1932.639954  	96.208878 
1934.076861  	96.168345 
1935.513768  	96.241939 
1936.950675  	96.348812 
1938.387582  	96.275332 
1939.824489  	96.343119 
1941.261396  	96.324167 
1942.698303  	96.219065 
1944.135210  	96.377251 
1945.572117  	96.374667 
1947.009024  	96.362086 
1948.445931  	96.401862 
1949.882838  	96.318652 
1951.319745  	96.350042 
1952.756652  	96.362835 
1954.193559  	96.364922 
1955.630466  	96.472367 
1957.067373  	96.457039 
1958.504280  	96.402499 
1959.941187  	96.351228 
1961.378094  	96.293194 
1962.815001  	96.530296 
1964.251908  	96.660610 
1965.688816  	96.600975 
1967.125723  	96.630263 
1968.562630  	96.414726 
1969.999537  	96.328353 
1971.436444  	96.531954 
1972.873351  	96.437380 
1974.310258  	96.353758 
1975.747165  	96.296809 
1977.184072  	96.147730 
1978.620979  	96.161152 
1980.057886  	96.018055 
1981.494793  	95.941862 
1982.931700  	96.038288 
1984.368607  	95.915248 
1985.805514  	95.917766 
1987.242421  	96.031307 
1988.679328  	95.975982 
1990.116235  	95.978821 
1991.553142  	96.020205 
1992.990049  	96.051898 
1994.426956  	96.052654 
1995.863863  	95.892087 
1997.300770  	95.853503 
1998.737677  	95.981729 
2000.174584  	95.818219 
2001.611491  	95.934282 
2003.048398  	96.088160 
2004.485305  	96.056927 
2005.922212  	96.199600 
2007.359119  	96.134862 
2008.796026  	96.081713 
2010.232933  	96.164714 
2011.669840  	96.056920 
2013.106747  	96.126633 
2014.543654  	96.196684 
2015.980562  	96.130572 
2017.417469  	96.138301 
2018.854376  	96.029497 
2020.291283  	96.070523 
2021.728190  	96.123167 
2023.165097  	96.051510 
2024.602004  	96.140077 
2026.038911  	95.898197 
2027.475818  	95.725851 
2028.912725  	96.041380 
2030.349632  	95.994050 
2031.786539  	95.833880 
2033.223446  	95.687113 
2034.660353  	95.301507 
2036.097260  	95.205927 
2037.534167  	95.113860 
2038.971074  	94.990588 
2040.407981  	95.145364 
2041.844888  	95.065025 
2043.281795  	95.028983 
2044.718702  	95.167342 
2046.155609  	95.059049 
2047.592516  	95.088760 
2049.029423  	95.031138 
2050.466330  	94.800139 
2051.903237  	94.908136 
2053.340144  	94.952321 
2054.777051  	94.819599 
2056.213958  	94.783679 
2057.650865  	94.696509 
2059.087772  	94.650996 
2060.524679  	94.635500 
2061.961586  	94.604789 
2063.398493  	94.673097 
2064.835401  	94.645541 
2066.272308  	94.659758 
2067.709215  	94.714714 
2069.146122  	94.546066 
2070.583029  	94.500155 
2072.019936  	94.506340 
2073.456843  	94.372277 
2074.893750  	94.433827 
2076.330657  	94.450876 
2077.767564  	94.303000 
2079.204471  	94.280442 
2080.641378  	94.281321 
2082.078285  	94.330628 
2083.515192  	94.395173 
2084.952099  	94.349975 
2086.389006  	94.339189 
2087.825913  	94.271196 
2089.262820  	94.239763 
2090.699727  	94.367804 
2092.136634  	94.423266 
2093.573541  	94.529405 
2095.010448  	94.531821 
2096.447355  	94.239167 
2097.884262  	94.169536 
2099.321169  	94.210636 
2100.758076  	94.170875 
2102.194983  	94.305230 
2103.631890  	94.272735 
2105.068797  	94.148659 
2106.505704  	94.253157 
2107.942611  	94.264611 
2109.379518  	94.262594 
2110.816425  	94.326836 
2112.253332  	94.247169 
2113.690239  	94.226823 
2115.127147  	94.306691 
2116.564054  	94.382566 
2118.000961  	94.403219 
2119.437868  	94.292944 
2120.874775  	94.284085 
2122.311682  	94.356534 
2123.748589  	94.396844 
2125.185496  	94.554898 
2126.622403  	94.566217 
2128.059310  	94.483182 
2129.496217  	94.574934 
2130.933124  	94.511252 
2132.370031  	94.465086 
2133.806938  	94.649620 
2135.243845  	94.660258 
2136.680752  	94.633008 
2138.117659  	94.596365 
2139.554566  	94.507953 
2140.991473  	94.777113 
2142.428380  	95.060338 
2143.865287  	94.974624 
2145.302194  	94.823071 
2146.739101  	94.864953 
2148.176008  	95.059701 
2149.612915  	95.095766 
2151.049822  	95.145106 
2152.486729  	95.302320 
2153.923636  	95.169288 
2155.360543  	95.257029 
2156.797450  	95.503571 
2158.234357  	95.126239 
2159.671264  	94.839497 
2161.108171  	94.794068 
2162.545078  	94.696806 
2163.981985  	94.776330 
2165.418893  	94.551780 
2166.855800  	94.296319 
2168.292707  	94.361663 
2169.729614  	94.353421 
2171.166521  	94.598583 
2172.603428  	94.980234 
2174.040335  	94.932768 
2175.477242  	94.774689 
2176.914149  	94.658285 
2178.351056  	94.728299 
2179.787963  	95.044198 
2181.224870  	95.062312 
2182.661777  	94.806551 
2184.098684  	94.550562 
2185.535591  	94.455343 
2186.972498  	94.667320 
2188.409405  	94.790016 
2189.846312  	94.714918 
2191.283219  	94.645827 
2192.720126  	94.524513 
2194.157033  	94.564121 
2195.593940  	94.755947 
2197.030847  	94.829482 
2198.467754  	94.825552 
2199.904661  	94.741520 
2201.341568  	94.770841 
2202.778475  	94.893999 
2204.215382  	94.842164 
2205.652289  	94.947208 
2207.089196  	95.140126 
2208.526103  	95.003161 
2209.963010  	94.840321 
2211.399917  	94.843927 
2212.836824  	94.911700 
2214.273732  	94.962310 
2215.710639  	94.879475 
2217.147546  	94.811824 
2218.584453  	94.810572 
2220.021360  	94.847533 
2221.458267  	94.904861 
2222.895174  	94.798130 
2224.332081  	94.823718 
2225.768988  	95.115989 
2227.205895  	95.198617 
2228.642802  	95.101712 
2230.079709  	94.946777 
2231.516616  	94.809913 
2232.953523  	94.959453 
2234.390430  	95.048272 
2235.827337  	94.901729 
2237.264244  	94.934290 
2238.701151  	95.065881 
2240.138058  	95.068160 
2241.574965  	94.966937 
2243.011872  	94.934929 
2244.448779  	95.080701 
2245.885686  	95.090323 
2247.322593  	95.028903 
2248.759500  	95.172263 
2250.196407  	95.201046 
2251.633314  	95.121204 
2253.070221  	95.131387 
2254.507128  	95.113873 
2255.944035  	95.166176 
2257.380942  	95.239172 
2258.817849  	95.227783 
2260.254756  	95.260913 
2261.691663  	95.252989 
2263.128570  	95.242948 
2264.565478  	95.320001 
2266.002385  	95.346903 
2267.439292  	95.360641 
2268.876199  	95.328340 
2270.313106  	95.245306 
2271.750013  	95.276849 
2273.186920  	95.306301 
2274.623827  	95.297389 
2276.060734  	95.324972 
2277.497641  	95.270995 
2278.934548  	95.216159 
2280.371455  	95.257140 
2281.808362  	95.297870 
2283.245269  	95.284131 
2284.682176  	95.211171 
2286.119083  	95.205547 
2287.555990  	95.284272 
2288.992897  	95.289303 
2290.429804  	95.283991 
2291.866711  	95.322617 
2293.303618  	95.333952 
2294.740525  	95.342890 
2296.177432  	95.340257 
2297.614339  	95.337886 
2299.051246  	95.281086 
2300.488153  	95.328057 
2301.925060  	95.328414 
2303.361967  	95.364446 
2304.798874  	95.372633 
2306.235781  	95.387909 
2307.672688  	95.388528 
2309.109595  	95.344258 
2310.546502  	95.292373 
2311.983409  	95.286863 
2313.420317  	95.339138 
2314.857224  	95.325260 
2316.294131  	95.294229 
2317.731038  	95.362426 
2319.167945  	95.358443 
2320.604852  	95.289475 
2322.041759  	95.251395 
2323.478666  	95.149911 
2324.915573  	95.183020 
2326.352480  	95.402082 
2327.789387  	95.529654 
2329.226294  	95.538809 
2330.663201  	95.502710 
2332.100108  	95.498344 
2333.537015  	95.591289 
2334.973922  	95.630450 
2336.410829  	95.622948 
2337.847736  	95.634069 
2339.284643  	95.609234 
2340.721550  	95.644060 
2342.158457  	95.684977 
2343.595364  	95.667556 
2345.032271  	95.686427 
2346.469178  	95.644504 
2347.906085  	95.630532 
2349.342992  	95.714825 
2350.779899  	95.725242 
2352.216806  	95.688582 
2353.653713  	95.703176 
2355.090620  	95.648760 
2356.527527  	95.666989 
2357.964434  	95.819133 
2359.401341  	95.867315 
2360.838248  	95.879154 
2362.275155  	95.945337 
2363.712063  	96.000319 
2365.148970  	96.001416 
2366.585877  	95.985250 
2368.022784  	96.009845 
2369.459691  	96.014123 
2370.896598  	96.059939 
2372.333505  	96.165584 
2373.770412  	96.153792 
2375.207319  	96.091692 
2376.644226  	96.082764 
2378.081133  	96.090239 
2379.518040  	96.129571 
2380.954947  	96.144240 
2382.391854  	96.124431 
2383.828761  	96.154661 
2385.265668  	96.205207 
2386.702575  	96.246278 
2388.139482  	96.278350 
2389.576389  	96.297771 
2391.013296  	96.321380 
2392.450203  	96.301347 
2393.887110  	96.271068 
2395.324017  	96.321294 
2396.760924  	96.363692 
2398.197831  	96.348281 
2399.634738  	96.317355 
2401.071645  	96.290322 
2402.508552  	96.325192 
2403.945459  	96.365088 
2405.382366  	96.343522 
2406.819273  	96.331438 
2408.256180  	96.322002 
2409.693087  	96.318027 
2411.129994  	96.350617 
2412.566901  	96.376746 
2414.003809  	96.410505 
2415.440716  	96.428957 
2416.877623  	96.420660 
2418.314530  	96.447854 
2419.751437  	96.444136 
2421.188344  	96.415360 
2422.625251  	96.439107 
2424.062158  	96.438668 
2425.499065  	96.421704 
2426.935972  	96.428690 
2428.372879  	96.406009 
2429.809786  	96.401649 
2431.246693  	96.453513 
2432.683600  	96.504442 
2434.120507  	96.505511 
2435.557414  	96.464544 
2436.994321  	96.458837 
2438.431228  	96.481204 
2439.868135  	96.491929 
2441.305042  	96.510078 
2442.741949  	96.493226 
2444.178856  	96.461924 
2445.615763  	96.469704 
2447.052670  	96.488541 
2448.489577  	96.534982 
2449.926484  	96.565699 
2451.363391  	96.557001 
2452.800298  	96.590550 
2454.237205  	96.599171 
2455.674112  	96.580803 
2457.111019  	96.630498 
2458.547926  	96.656867 
2459.984833  	96.644046 
2461.421740  	96.641755 
2462.858648  	96.605375 
2464.295555  	96.592056 
2465.732462  	96.624183 
2467.169369  	96.641390 
2468.606276  	96.646248 
2470.043183  	96.626598 
2471.480090  	96.616757 
2472.916997  	96.649586 
2474.353904  	96.677437 
2475.790811  	96.695900 
2477.227718  	96.692107 
2478.664625  	96.674921 
2480.101532  	96.686691 
2481.538439  	96.688693 
2482.975346  	96.681012 
2484.412253  	96.687409 
2485.849160  	96.709422 
2487.286067  	96.756302 
2488.722974  	96.753482 
2490.159881  	96.730670 
2491.596788  	96.769875 
2493.033695  	96.775679 
2494.470602  	96.760145 
2495.907509  	96.775883 
2497.344416  	96.760686 
2498.781323  	96.765180 
2500.218230  	96.770974 
2501.655137  	96.727183 
2503.092044  	96.729759 
2504.528951  	96.738438 
2505.965858  	96.723066 
2507.402765  	96.765818 
2508.839672  	96.791030 
2510.276579  	96.759887 
2511.713486  	96.755522 
2513.150394  	96.791996 
2514.587301  	96.817966 
2516.024208  	96.803176 
2517.461115  	96.813377 
2518.898022  	96.824187 
2520.334929  	96.776220 
2521.771836  	96.801338 
2523.208743  	96.856206 
2524.645650  	96.820130 
2526.082557  	96.838423 
2527.519464  	96.880428 
2528.956371  	96.832821 
2530.393278  	96.818900 
2531.830185  	96.838259 
2533.267092  	96.823709 
2534.703999  	96.818942 
2536.140906  	96.818906 
2537.577813  	96.808889 
2539.014720  	96.796220 
2540.451627  	96.815492 
2541.888534  	96.862510 
2543.325441  	96.856768 
2544.762348  	96.851516 
2546.199255  	96.880565 
2547.636162  	96.853243 
2549.073069  	96.819864 
2550.509976  	96.824747 
2551.946883  	96.831475 
2553.383790  	96.867145 
2554.820697  	96.891673 
2556.257604  	96.868595 
2557.694511  	96.845514 
2559.131418  	96.837288 
2560.568325  	96.854858 
2562.005232  	96.875458 
2563.442140  	96.866640 
2564.879047  	96.861341 
2566.315954  	96.870287 
2567.752861  	96.863951 
2569.189768  	96.810394 
2570.626675  	96.774323 
2572.063582  	96.839779 
2573.500489  	96.886762 
2574.937396  	96.861561 
2576.374303  	96.873349 
2577.811210  	96.881919 
2579.248117  	96.866186 
2580.685024  	96.875008 
2582.121931  	96.865879 
2583.558838  	96.857892 
2584.995745  	96.851943 
2586.432652  	96.821615 
2587.869559  	96.840317 
2589.306466  	96.871606 
2590.743373  	96.852018 
2592.180280  	96.842551 
2593.617187  	96.845106 
2595.054094  	96.842626 
2596.491001  	96.852110 
2597.927908  	96.864108 
2599.364815  	96.873600 
2600.801722  	96.868704 
2602.238629  	96.863249 
2603.675536  	96.856043 
2605.112443  	96.821517 
2606.549350  	96.820918 
2607.986257  	96.849756 
2609.423164  	96.832083 
2610.860071  	96.817043 
2612.296979  	96.831583 
2613.733886  	96.830010 
2615.170793  	96.817499 
2616.607700  	96.812054 
2618.044607  	96.824110 
2619.481514  	96.832720 
2620.918421  	96.821385 
2622.355328  	96.811853 
2623.792235  	96.789905 
2625.229142  	96.777378 
2626.666049  	96.798278 
2628.102956  	96.801151 
2629.539863  	96.802965 
2630.976770  	96.808933 
2632.413677  	96.773145 
2633.850584  	96.758795 
2635.287491  	96.787873 
2636.724398  	96.795184 
2638.161305  	96.784091 
2639.598212  	96.774419 
2641.035119  	96.772383 
2642.472026  	96.770188 
2643.908933  	96.763420 
2645.345840  	96.776345 
2646.782747  	96.767751 
2648.219654  	96.732545 
2649.656561  	96.746418 
2651.093468  	96.772150 
2652.530375  	96.768026 
2653.967282  	96.774805 
2655.404189  	96.779604 
2656.841096  	96.778043 
2658.278003  	96.785234 
2659.714910  	96.786048 
2661.151817  	96.792990 
2662.588725  	96.805035 
2664.025632  	96.806656 
2665.462539  	96.802868 
2666.899446  	96.794654 
2668.336353  	96.802065 
2669.773260  	96.817832 
2671.210167  	96.814981 
2672.647074  	96.815589 
2674.083981  	96.807694 
2675.520888  	96.780886 
2676.957795  	96.781717 
2678.394702  	96.790074 
2679.831609  	96.769483 
2681.268516  	96.752355 
2682.705423  	96.750067 
2684.142330  	96.745528 
2685.579237  	96.741778 
2687.016144  	96.748717 
2688.453051  	96.756736 
2689.889958  	96.748222 
2691.326865  	96.725537 
2692.763772  	96.697864 
2694.200679  	96.691446 
2695.637586  	96.711750 
2697.074493  	96.707931 
2698.511400  	96.690228 
2699.948307  	96.700248 
2701.385214  	96.708490 
2702.822121  	96.705842 
2704.259028  	96.698320 
2705.695935  	96.685809 
2707.132842  	96.691026 
2708.569749  	96.681573 
2710.006656  	96.654403 
2711.443564  	96.655124 
2712.880471  	96.644667 
2714.317378  	96.626736 
2715.754285  	96.640297 
2717.191192  	96.633317 
2718.628099  	96.614853 
2720.065006  	96.618801 
2721.501913  	96.602834 
2722.938820  	96.580123 
2724.375727  	96.582353 
2725.812634  	96.588546 
2727.249541  	96.576977 
2728.686448  	96.544119 
2730.123355  	96.532879 
2731.560262  	96.553108 
2732.997169  	96.542684 
2734.434076  	96.505093 
2735.870983  	96.487139 
2737.307890  	96.481329 
2738.744797  	96.467402 
2740.181704  	96.454024 
2741.618611  	96.458407 
2743.055518  	96.466075 
2744.492425  	96.461221 
2745.929332  	96.455326 
2747.366239  	96.441788 
2748.803146  	96.420613 
2750.240053  	96.401429 
2751.676960  	96.375850 
2753.113867  	96.357969 
2754.550774  	96.354530 
2755.987681  	96.359232 
2757.424588  	96.372982 
2758.861495  	96.360068 
2760.298402  	96.324911 
2761.735310  	96.311815 
2763.172217  	96.300345 
2764.609124  	96.281763 
2766.046031  	96.270219 
2767.482938  	96.254979 
2768.919845  	96.248533 
2770.356752  	96.240203 
2771.793659  	96.212853 
2773.230566  	96.196796 
2774.667473  	96.191225 
2776.104380  	96.178705 
2777.541287  	96.160705 
2778.978194  	96.138643 
2780.415101  	96.127455 
2781.852008  	96.117587 
2783.288915  	96.097696 
2784.725822  	96.081198 
2786.162729  	96.054731 
2787.599636  	96.022244 
2789.036543  	96.001828 
2790.473450  	95.989278 
2791.910357  	95.988870 
2793.347264  	95.976333 
2794.784171  	95.946162 
2796.221078  	95.932930 
2797.657985  	95.916904 
2799.094892  	95.894504 
2800.531799  	95.871065 
2801.968706  	95.818890 
2803.405613  	95.789507 
2804.842520  	95.793296 
2806.279427  	95.763999 
2807.716334  	95.741345 
2809.153241  	95.744402 
2810.590148  	95.719087 
2812.027056  	95.682883 
2813.463963  	95.657929 
2814.900870  	95.637207 
2816.337777  	95.615873 
2817.774684  	95.586841 
2819.211591  	95.567425 
2820.648498  	95.547321 
2822.085405  	95.509400 
2823.522312  	95.476636 
2824.959219  	95.449303 
2826.396126  	95.428039 
2827.833033  	95.404416 
2829.269940  	95.362765 
2830.706847  	95.343013 
2832.143754  	95.322869 
2833.580661  	95.263838 
2835.017568  	95.237290 
2836.454475  	95.238468 
2837.891382  	95.204081 
2839.328289  	95.162864 
2840.765196  	95.125153 
2842.202103  	95.086862 
2843.639010  	95.067391 
2845.075917  	95.045986 
2846.512824  	95.020809 
2847.949731  	95.005860 
2849.386638  	94.980018 
2850.823545  	94.941346 
2852.260452  	94.913044 
2853.697359  	94.890711 
2855.134266  	94.844165 
2856.571173  	94.783554 
2858.008080  	94.729125 
2859.444987  	94.661413 
2860.881895  	94.616024 
2862.318802  	94.610557 
2863.755709  	94.571189 
2865.192616  	94.513159 
2866.629523  	94.471398 
2868.066430  	94.405117 
2869.503337  	94.345630 
2870.940244  	94.311848 
2872.377151  	94.266603 
2873.814058  	94.219775 
2875.250965  	94.160900 
2876.687872  	94.107278 
2878.124779  	94.096018 
2879.561686  	94.067712 
2880.998593  	94.009431 
2882.435500  	93.961407 
2883.872407  	93.908553 
2885.309314  	93.860791 
2886.746221  	93.821132 
2888.183128  	93.764519 
2889.620035  	93.696806 
2891.056942  	93.629862 
2892.493849  	93.592232 
2893.930756  	93.566772 
2895.367663  	93.507970 
2896.804570  	93.462305 
2898.241477  	93.425611 
2899.678384  	93.339732 
2901.115291  	93.252771 
2902.552198  	93.197819 
2903.989105  	93.149308 
2905.426012  	93.086599 
2906.862919  	92.998157 
2908.299826  	92.929596 
2909.736733  	92.879862 
2911.173641  	92.811449 
2912.610548  	92.768712 
2914.047455  	92.720984 
2915.484362  	92.628867 
2916.921269  	92.572562 
2918.358176  	92.521817 
2919.795083  	92.412477 
2921.231990  	92.317474 
2922.668897  	92.252211 
2924.105804  	92.167622 
2925.542711  	92.077626 
2926.979618  	92.004617 
2928.416525  	91.931776 
2929.853432  	91.839483 
2931.290339  	91.751412 
2932.727246  	91.677628 
2934.164153  	91.589734 
2935.601060  	91.496686 
2937.037967  	91.417463 
2938.474874  	91.352768 
2939.911781  	91.279938 
2941.348688  	91.171898 
2942.785595  	91.084314 
2944.222502  	91.029024 
2945.659409  	90.931258 
2947.096316  	90.818853 
2948.533223  	90.721689 
2949.970130  	90.615827 
2951.407037  	90.524471 
2952.843944  	90.417345 
2954.280851  	90.300301 
2955.717758  	90.247813 
2957.154665  	90.188227 
2958.591572  	90.056149 
2960.028479  	89.913467 
2961.465387  	89.793756 
2962.902294  	89.701932 
2964.339201  	89.613442 
2965.776108  	89.497828 
2967.213015  	89.370552 
2968.649922  	89.241693 
2970.086829  	89.135325 
2971.523736  	89.029746 
2972.960643  	88.870233 
2974.397550  	88.722481 
2975.834457  	88.613005 
2977.271364  	88.472843 
2978.708271  	88.331885 
2980.145178  	88.225604 
2981.582085  	88.120002 
2983.018992  	87.997747 
2984.455899  	87.868551 
2985.892806  	87.752742 
2987.329713  	87.627806 
2988.766620  	87.485948 
2990.203527  	87.367434 
2991.640434  	87.249038 
2993.077341  	87.113722 
2994.514248  	86.979200 
2995.951155  	86.831891 
2997.388062  	86.687753 
2998.824969  	86.548518 
3000.261876  	86.401742 
3001.698783  	86.256694 
3003.135690  	86.089173 
3004.572597  	85.925886 
3006.009504  	85.786160 
3007.446411  	85.629101 
3008.883318  	85.496708 
3010.320226  	85.372649 
3011.757133  	85.196633 
3013.194040  	85.023853 
3014.630947  	84.847276 
3016.067854  	84.660806 
3017.504761  	84.511595 
3018.941668  	84.348231 
3020.378575  	84.173290 
3021.815482  	84.016434 
3023.252389  	83.846844 
3024.689296  	83.667068 
3026.126203  	83.445961 
3027.563110  	83.228210 
3029.000017  	83.075713 
3030.436924  	82.888022 
3031.873831  	82.678693 
3033.310738  	82.494238 
3034.747645  	82.275716 
3036.184552  	82.086190 
3037.621459  	81.903516 
3039.058366  	81.660479 
3040.495273  	81.445878 
3041.932180  	81.246556 
3043.369087  	81.042961 
3044.805994  	80.862142 
3046.242901  	80.650359 
3047.679808  	80.441023 
3049.116715  	80.235056 
3050.553622  	80.003094 
3051.990529  	79.788431 
3053.427436  	79.538774 
3054.864343  	79.293676 
3056.301250  	79.094833 
3057.738157  	78.835038 
3059.175064  	78.591370 
3060.611972  	78.385797 
3062.048879  	78.136264 
3063.485786  	77.921131 
3064.922693  	77.673243 
3066.359600  	77.365024 
3067.796507  	77.118129 
3069.233414  	76.869757 
3070.670321  	76.632807 
3072.107228  	76.419893 
3073.544135  	76.153691 
3074.981042  	75.904941 
3076.417949  	75.626023 
3077.854856  	75.316203 
3079.291763  	75.083920 
3080.728670  	74.806232 
3082.165577  	74.519747 
3083.602484  	74.297690 
3085.039391  	74.025265 
3086.476298  	73.778654 
3087.913205  	73.515846 
3089.350112  	73.172501 
3090.787019  	72.898763 
3092.223926  	72.606939 
3093.660833  	72.282017 
3095.097740  	72.025009 
3096.534647  	71.740556 
3097.971554  	71.482850 
3099.408461  	71.229281 
3100.845368  	70.904041 
3102.282275  	70.632314 
3103.719182  	70.319709 
3105.156089  	69.959907 
3106.592996  	69.672351 
3108.029903  	69.334825 
3109.466811  	69.027897 
3110.903718  	68.804700 
3112.340625  	68.522520 
3113.777532  	68.224727 
3115.214439  	67.884236 
3116.651346  	67.552558 
3118.088253  	67.300430 
3119.525160  	66.962913 
3120.962067  	66.650833 
3122.398974  	66.402106 
3123.835881  	66.061697 
3125.272788  	65.769190 
3126.709695  	65.475859 
3128.146602  	65.128582 
3129.583509  	64.862855 
3131.020416  	64.557242 
3132.457323  	64.256267 
3133.894230  	64.006378 
3135.331137  	63.671421 
3136.768044  	63.367566 
3138.204951  	63.044039 
3139.641858  	62.677258 
3141.078765  	62.418258 
3142.515672  	62.113953 
3143.952579  	61.822514 
3145.389486  	61.601433 
3146.826393  	61.253096 
3148.263300  	60.933938 
3149.700207  	60.653743 
3151.137114  	60.323315 
3152.574021  	60.067738 
3154.010928  	59.745944 
3155.447835  	59.439951 
3156.884742  	59.253931 
3158.321649  	58.947629 
3159.758557  	58.649734 
3161.195464  	58.391748 
3162.632371  	58.067918 
3164.069278  	57.842170 
3165.506185  	57.577298 
3166.943092  	57.279372 
3168.379999  	57.083842 
3169.816906  	56.807988 
3171.253813  	56.548947 
3172.690720  	56.302411 
3174.127627  	55.984746 
3175.564534  	55.785066 
3177.001441  	55.527503 
3178.438348  	55.240838 
3179.875255  	55.089578 
3181.312162  	54.790223 
3182.749069  	54.500659 
3184.185976  	54.325001 
3185.622883  	54.061890 
3187.059790  	53.900863 
3188.496697  	53.725437 
3189.933604  	53.454592 
3191.370511  	53.289489 
3192.807418  	53.048335 
3194.244325  	52.820896 
3195.681232  	52.678619 
3197.118139  	52.434704 
3198.555046  	52.299365 
3199.991953  	52.174286 
3201.428860  	51.931264 
3202.865767  	51.779291 
3204.302674  	51.582324 
3205.739581  	51.402611 
3207.176488  	51.281686 
3208.613395  	51.048716 
3210.050303  	50.946060 
3211.487210  	50.854947 
3212.924117  	50.630520 
3214.361024  	50.551570 
3215.797931  	50.438180 
3217.234838  	50.268564 
3218.671745  	50.175288 
3220.108652  	50.006087 
3221.545559  	49.933059 
3222.982466  	49.893098 
3224.419373  	49.746143 
3225.856280  	49.671183 
3227.293187  	49.526629 
3228.730094  	49.406520 
3230.167001  	49.404985 
3231.603908  	49.260599 
3233.040815  	49.175709 
3234.477722  	49.148500 
3235.914629  	49.034645 
3237.351536  	49.022125 
3238.788443  	48.933463 
3240.225350  	48.846693 
3241.662257  	48.891900 
3243.099164  	48.768029 
3244.536071  	48.689938 
3245.972978  	48.697541 
3247.409885  	48.582333 
3248.846792  	48.574547 
3250.283699  	48.549177 
3251.720606  	48.499099 
3253.157513  	48.553288 
3254.594420  	48.467004 
3256.031327  	48.443247 
3257.468234  	48.478521 
3258.905142  	48.359900 
3260.342049  	48.394537 
3261.778956  	48.421785 
3263.215863  	48.345887 
3264.652770  	48.395092 
3266.089677  	48.338095 
3267.526584  	48.297809 
3268.963491  	48.315940 
3270.400398  	48.165858 
3271.837305  	48.172204 
3273.274212  	48.244164 
3274.711119  	48.192091 
3276.148026  	48.251934 
3277.584933  	48.269421 
3279.021840  	48.291534 
3280.458747  	48.357387 
3281.895654  	48.252782 
3283.332561  	48.229245 
3284.769468  	48.260343 
3286.206375  	48.225868 
3287.643282  	48.286517 
3289.080189  	48.259230 
3290.517096  	48.227315 
3291.954003  	48.258647 
3293.390910  	48.175447 
3294.827817  	48.219055 
3296.264724  	48.258651 
3297.701631  	48.171426 
3299.138538  	48.219812 
3300.575445  	48.200442 
3302.012352  	48.181467 
3303.449259  	48.256266 
3304.886166  	48.159903 
3306.323073  	48.146521 
3307.759980  	48.189887 
3309.196888  	48.142440 
3310.633795  	48.240222 
3312.070702  	48.230717 
3313.507609  	48.176443 
3314.944516  	48.290767 
3316.381423  	48.275425 
3317.818330  	48.293136 
3319.255237  	48.333652 
3320.692144  	48.242617 
3322.129051  	48.315016 
3323.565958  	48.320587 
3325.002865  	48.226195 
3326.439772  	48.303492 
3327.876679  	48.288959 
3329.313586  	48.289902 
3330.750493  	48.353931 
3332.187400  	48.309812 
3333.624307  	48.391530 
3335.061214  	48.411239 
3336.498121  	48.340288 
3337.935028  	48.437797 
3339.371935  	48.437849 
3340.808842  	48.450997 
3342.245749  	48.538466 
3343.682656  	48.485720 
3345.119563  	48.562654 
3346.556470  	48.656687 
3347.993377  	48.641298 
3349.430284  	48.705838 
3350.867191  	48.668648 
3352.304098  	48.686736 
3353.741005  	48.814568 
3355.177912  	48.810586 
3356.614819  	48.901312 
3358.051726  	48.953750 
3359.488634  	48.917023 
3360.925541  	49.061629 
3362.362448  	49.101851 
3363.799355  	49.127638 
3365.236262  	49.273863 
3366.673169  	49.270161 
3368.110076  	49.340038 
3369.546983  	49.433864 
3370.983890  	49.475793 
3372.420797  	49.697122 
3373.857704  	49.780337 
3375.294611  	49.800237 
3376.731518  	49.965458 
3378.168425  	49.995899 
3379.605332  	50.091377 
3381.042239  	50.234233 
3382.479146  	50.270038 
3383.916053  	50.461974 
3385.352960  	50.601130 
3386.789867  	50.683470 
3388.226774  	50.878187 
3389.663681  	50.924181 
3391.100588  	50.999472 
3392.537495  	51.177606 
3393.974402  	51.305589 
3395.411309  	51.487831 
3396.848216  	51.562184 
3398.285123  	51.675322 
3399.722030  	51.936528 
3401.158937  	52.033160 
3402.595844  	52.204443 
3404.032751  	52.419777 
3405.469658  	52.490824 
3406.906565  	52.719387 
3408.343473  	52.879504 
3409.780380  	52.965290 
3411.217287  	53.245124 
3412.654194  	53.395064 
3414.091101  	53.536804 
3415.528008  	53.809544 
3416.964915  	53.972701 
3418.401822  	54.140955 
3419.838729  	54.287135 
3421.275636  	54.495141 
3422.712543  	54.806568 
3424.149450  	54.909242 
3425.586357  	55.082119 
3427.023264  	55.345438 
3428.460171  	55.445283 
3429.897078  	55.707697 
3431.333985  	55.979333 
3432.770892  	56.117693 
3434.207799  	56.341754 
3435.644706  	56.457854 
3437.081613  	56.664530 
3438.518520  	57.019469 
3439.955427  	57.186957 
3441.392334  	57.420809 
3442.829241  	57.664107 
3444.266148  	57.772691 
3445.703055  	58.012539 
3447.139962  	58.212661 
3448.576869  	58.394839 
3450.013776  	58.654451 
3451.450683  	58.838000 
3452.887590  	59.122349 
3454.324497  	59.358362 
3455.761404  	59.492505 
3457.198311  	59.791462 
3458.635219  	59.989076 
3460.072126  	60.125757 
3461.509033  	60.379005 
3462.945940  	60.556686 
3464.382847  	60.803047 
3465.819754  	61.029924 
3467.256661  	61.169406 
3468.693568  	61.459722 
3470.130475  	61.679705 
3471.567382  	61.897217 
3473.004289  	62.226901 
3474.441196  	62.415635 
3475.878103  	62.676961 
3477.315010  	62.946416 
3478.751917  	63.036444 
3480.188824  	63.230807 
3481.625731  	63.440171 
3483.062638  	63.656366 
3484.499545  	63.915807 
3485.936452  	64.018076 
3487.373359  	64.268148 
3488.810266  	64.624822 
3490.247173  	64.826671 
3491.684080  	65.118103 
3493.120987  	65.334891 
3494.557894  	65.468903 
3495.994801  	65.730631 
3497.431708  	65.902998 
3498.868615  	66.131324 
3500.305522  	66.398248 
3501.742429  	66.511792 
3503.179336  	66.789343 
3504.616243  	67.100796 
3506.053150  	67.288540 
3507.490058  	67.537884 
3508.926965  	67.688447 
3510.363872  	67.889067 
3511.800779  	68.187825 
3513.237686  	68.361858 
3514.674593  	68.630599 
3516.111500  	68.891053 
3517.548407  	69.065753 
3518.985314  	69.356268 
3520.422221  	69.539585 
3521.859128  	69.687519 
3523.296035  	69.948834 
3524.732942  	70.143056 
3526.169849  	70.395900 
3527.606756  	70.629279 
3529.043663  	70.812333 
3530.480570  	71.142945 
3531.917477  	71.368752 
3533.354384  	71.548552 
3534.791291  	71.812439 
3536.228198  	71.976846 
3537.665105  	72.236370 
3539.102012  	72.547422 
3540.538919  	72.708324 
3541.975826  	72.912825 
3543.412733  	73.111742 
3544.849640  	73.290296 
3546.286547  	73.538466 
3547.723454  	73.756546 
3549.160361  	73.998998 
3550.597268  	74.230291 
3552.034175  	74.416057 
3553.471082  	74.672942 
3554.907989  	74.893223 
3556.344896  	75.111193 
3557.781804  	75.358779 
3559.218711  	75.534198 
3560.655618  	75.751097 
3562.092525  	75.988385 
3563.529432  	76.175391 
3564.966339  	76.407955 
3566.403246  	76.588826 
3567.840153  	76.780244 
3569.277060  	77.075486 
3570.713967  	77.273806 
3572.150874  	77.511802 
3573.587781  	77.735520 
3575.024688  	77.888256 
3576.461595  	78.165584 
3577.898502  	78.392181 
3579.335409  	78.559922 
3580.772316  	78.812657 
3582.209223  	78.963192 
3583.646130  	79.106452 
3585.083037  	79.330094 
3586.519944  	79.535893 
3587.956851  	79.774703 
3589.393758  	79.928484 
3590.830665  	80.093287 
3592.267572  	80.321547 
3593.704479  	80.472621 
3595.141386  	80.753797 
3596.578293  	81.078893 
3598.015200  	81.205223 
3599.452107  	81.388619 
3600.889014  	81.561203 
3602.325921  	81.711000 
3603.762828  	81.993912 
3605.199735  	82.153713 
3606.636642  	82.256253 
3608.073550  	82.478104 
3609.510457  	82.645568 
3610.947364  	82.811872 
3612.384271  	82.983059 
3613.821178  	83.155785 
3615.258085  	83.424197 
3616.694992  	83.634827 
3618.131899  	83.898957 
3619.568806  	84.206008 
3621.005713  	84.323656 
3622.442620  	84.506929 
3623.879527  	84.707489 
3625.316434  	84.822259 
3626.753341  	84.985058 
3628.190248  	85.128997 
3629.627155  	85.242187 
3631.064062  	85.509175 
3632.500969  	85.732517 
3633.937876  	86.028019 
3635.374783  	86.278843 
3636.811690  	86.489413 
3638.248597  	86.811612 
3639.685504  	86.996320 
3641.122411  	87.094999 
3642.559318  	87.293242 
3643.996225  	87.485843 
3645.433132  	87.750643 
3646.870039  	88.035351 
3648.306946  	88.183344 
3649.743853  	88.393307 
3651.180760  	88.553577 
3652.617667  	88.805437 
3654.054574  	89.200263 
3655.491481  	89.556790 
3656.928389  	89.855345 
3658.365296  	90.068972 
3659.802203  	90.272449 
3661.239110  	90.496915 
3662.676017  	90.641563 
3664.112924  	90.841945 
3665.549831  	91.062194 
3666.986738  	91.248518 
3668.423645  	91.457684 
3669.860552  	91.687199 
3671.297459  	91.827267 
3672.734366  	92.043452 
3674.171273  	92.296439 
3675.608180  	92.466050 
3677.045087  	92.613690 
3678.481994  	92.836826 
3679.918901  	93.041928 
3681.355808  	93.210580 
3682.792715  	93.371724 
3684.229622  	93.511086 
3685.666529  	93.639818 
3687.103436  	93.855291 
3688.540343  	94.047300 
3689.977250  	94.121368 
3691.414157  	94.283869 
3692.851064  	94.427989 
3694.287971  	94.581249 
3695.724878  	94.776887 
3697.161785  	94.911817 
3698.598692  	95.051141 
3700.035599  	95.190776 
3701.472506  	95.174853 
3702.909413  	95.132537 
3704.346320  	95.245879 
3705.783227  	95.352903 
3707.220135  	95.468612 
3708.657042  	95.580596 
3710.093949  	95.688187 
3711.530856  	95.753303 
3712.967763  	95.666571 
3714.404670  	95.640913 
3715.841577  	95.703940 
3717.278484  	95.779854 
3718.715391  	95.867831 
3720.152298  	95.912898 
3721.589205  	95.916252 
3723.026112  	95.876828 
3724.463019  	95.873195 
3725.899926  	95.984928 
3727.336833  	95.989878 
3728.773740  	95.937294 
3730.210647  	96.074428 
3731.647554  	96.185100 
3733.084461  	96.164153 
3734.521368  	96.265895 
3735.958275  	96.211148 
3737.395182  	96.023873 
3738.832089  	96.167172 
3740.268996  	96.271742 
3741.705903  	96.296818 
3743.142810  	96.444762 
3744.579717  	96.420751 
3746.016624  	96.082151 
3747.453531  	96.302546 
3748.890438  	96.569838 
3750.327345  	96.528037 
3751.764252  	96.429636 
3753.201159  	96.404763 
3754.638066  	96.380154 
3756.074973  	96.494422 
3757.511881  	96.550890 
3758.948788  	96.460641 
3760.385695  	96.434038 
3761.822602  	96.400733 
3763.259509  	96.449725 
3764.696416  	96.590630 
3766.133323  	96.571492 
3767.570230  	96.564797 
3769.007137  	96.686870 
3770.444044  	96.618560 
3771.880951  	96.533320 
3773.317858  	96.632674 
3774.754765  	96.633813 
3776.191672  	96.575780 
3777.628579  	96.566379 
3779.065486  	96.596354 
3780.502393  	96.494912 
3781.939300  	96.450199 
3783.376207  	96.605491 
3784.813114  	96.653339 
3786.250021  	96.547954 
3787.686928  	96.599800 
3789.123835  	96.655624 
3790.560742  	96.660261 
3791.997649  	96.684057 
3793.434556  	96.661473 
3794.871463  	96.663825 
3796.308370  	96.660197 
3797.745277  	96.588343 
3799.182184  	96.641816 
3800.619091  	96.767572 
3802.055998  	96.716302 
3803.492905  	96.627589 
3804.929812  	96.690810 
3806.366720  	96.771202 
3807.803627  	96.697723 
3809.240534  	96.648286 
3810.677441  	96.727402 
3812.114348  	96.718162 
3813.551255  	96.677119 
3814.988162  	96.745884 
3816.425069  	96.674286 
3817.861976  	96.578129 
3819.298883  	96.708450 
3820.735790  	96.778698 
3822.172697  	96.666877 
3823.609604  	96.682773 
3825.046511  	96.758499 
3826.483418  	96.772162 
3827.920325  	96.716093 
3829.357232  	96.722336 
3830.794139  	96.756364 
3832.231046  	96.709233 
3833.667953  	96.701330 
3835.104860  	96.749691 
3836.541767  	96.776079 
3837.978674  	96.830071 
3839.415581  	96.785369 
3840.852488  	96.670599 
3842.289395  	96.699691 
3843.726302  	96.758223 
3845.163209  	96.750851 
3846.600116  	96.741002 
3848.037023  	96.749202 
3849.473930  	96.790571 
3850.910837  	96.885148 
3852.347744  	96.982496 
3853.784651  	96.763743 
3855.221558  	96.542695 
3856.658466  	96.688652 
3858.095373  	96.736980 
3859.532280  	96.786257 
3860.969187  	96.921095 
3862.406094  	96.900193 
3863.843001  	96.794445 
3865.279908  	96.732396 
3866.716815  	96.654216 
3868.153722  	96.773020 
3869.590629  	96.894932 
3871.027536  	96.674778 
3872.464443  	96.728631 
3873.901350  	96.884514 
3875.338257  	96.796268 
3876.775164  	96.777551 
3878.212071  	96.847788 
3879.648978  	96.847571 
3881.085885  	96.757273 
3882.522792  	96.690015 
3883.959699  	96.767324 
3885.396606  	96.812862 
3886.833513  	96.647588 
3888.270420  	96.704750 
3889.707327  	96.867308 
3891.144234  	96.854091 
3892.581141  	96.731307 
3894.018048  	96.723713 
3895.454955  	96.743195 
3896.891862  	96.766689 
3898.328769  	96.823651 
3899.765676  	96.872744 
3901.202583  	96.783374 
3902.639490  	96.725512 
3904.076397  	96.740807 
3905.513305  	96.675857 
3906.950212  	96.694027 
3908.387119  	96.784733 
3909.824026  	96.811779 
3911.260933  	96.833578 
3912.697840  	96.812687 
3914.134747  	96.781983 
3915.571654  	96.783906 
3917.008561  	96.720627 
3918.445468  	96.678638 
3919.882375  	96.714533 
3921.319282  	96.700360 
3922.756189  	96.721446 
3924.193096  	96.754636 
3925.630003  	96.698493 
3927.066910  	96.687926 
3928.503817  	96.741465 
3929.940724  	96.752971 
3931.377631  	96.756148 
3932.814538  	96.727721 
3934.251445  	96.672386 
3935.688352  	96.680251 
3937.125259  	96.710593 
3938.562166  	96.734161 
3939.999073  	96.746097 
3941.435980  	96.750776 
3942.872887  	96.718954 
3944.309794  	96.677735 
3945.746701  	96.697443 
3947.183608  	96.717681 
3948.620515  	96.716571 
3950.057422  	96.719481 
3951.494329  	96.649802 
3952.931236  	96.615127 
3954.368143  	96.717082 
3955.805051  	96.769787 
3957.241958  	96.725099 
3958.678865  	96.682592 
3960.115772  	96.662314 
3961.552679  	96.681364 
3962.989586  	96.695378 
3964.426493  	96.703060 
3965.863400  	96.741301 
3967.300307  	96.728002 
3968.737214  	96.699557 
3970.174121  	96.727228 
3971.611028  	96.745492 
3973.047935  	96.748191 
3974.484842  	96.726483 
3975.921749  	96.691750 
3977.358656  	96.707779 
3978.795563  	96.721468 
3980.232470  	96.724594 
3981.669377  	96.741498 
3983.106284  	96.734429 
3984.543191  	96.747939 
3985.980098  	96.769702 
3987.417005  	96.756411 
3988.853912  	96.764060 
3990.290819  	96.763413 
3991.727726  	96.731442 
3993.164633  	96.715460 
3994.601540  	96.700966 
3996.038447  	96.710109 
3997.475354  	96.739633 
3998.912261  	96.735594 
4000.349168  	96.739198 