##TITLE=No Description
##DATA TYPE=INFRARED SPECTRUM
##XUNITS=1/CM
##YUNITS=%T
399.460154  	41.307026 
400.897061  	38.999362 
402.333968  	39.586900 
403.770875  	39.210530 
405.207782  	38.127041 
406.644689  	39.173886 
408.081596  	38.713642 
409.518503  	38.718298 
410.955410  	38.772804 
412.392317  	37.331790 
413.829224  	38.074922 
415.266131  	38.220435 
416.703038  	36.889743 
418.139945  	37.490058 
419.576852  	37.637012 
421.013759  	37.949266 
422.450666  	38.316702 
423.887574  	37.453787 
425.324481  	37.932362 
426.761388  	38.092047 
428.198295  	37.584233 
429.635202  	37.774046 
431.072109  	36.884135 
432.509016  	36.600716 
433.945923  	37.258462 
435.382830  	36.983621 
436.819737  	37.520720 
438.256644  	37.570915 
439.693551  	36.947488 
441.130458  	37.511073 
442.567365  	37.284790 
444.004272  	37.168846 
445.441179  	37.826368 
446.878086  	37.257332 
448.314993  	37.120588 
449.751900  	37.168068 
451.188807  	36.942295 
452.625714  	37.553058 
454.062621  	37.343012 
455.499528  	37.220637 
456.936435  	37.979961 
458.373342  	37.518637 
459.810249  	37.147956 
461.247156  	36.923795 
462.684063  	36.600355 
464.120970  	37.215869 
465.557877  	37.285627 
466.994784  	37.119008 
468.431691  	37.218549 
469.868598  	36.684620 
471.305505  	36.957156 
472.742413  	37.335425 
474.179320  	36.716191 
475.616227  	37.018595 
477.053134  	37.279101 
478.490041  	36.922472 
479.926948  	36.905318 
481.363855  	36.843985 
482.800762  	36.963004 
484.237669  	36.856574 
485.674576  	36.389606 
487.111483  	36.589445 
488.548390  	36.693796 
489.985297  	36.561126 
491.422204  	36.643195 
492.859111  	36.510876 
494.296018  	36.652526 
495.732925  	36.794411 
497.169832  	36.587149 
498.606739  	36.679421 
500.043646  	36.515169 
501.480553  	36.388341 
502.917460  	36.856673 
504.354367  	36.768240 
505.791274  	36.659329 
507.228181  	36.903080 
508.665088  	36.666230 
510.101995  	36.569827 
511.538902  	36.672537 
512.975809  	36.597521 
514.412716  	36.687584 
515.849623  	36.717407 
517.286530  	36.608528 
518.723437  	36.601207 
520.160344  	36.636979 
521.597251  	36.727219 
523.034159  	36.722033 
524.471066  	36.771746 
525.907973  	36.930055 
527.344880  	36.844827 
528.781787  	36.846767 
530.218694  	36.936899 
531.655601  	36.919938 
533.092508  	37.060703 
534.529415  	37.121522 
535.966322  	37.125398 
537.403229  	37.259558 
538.840136  	37.193264 
540.277043  	37.151489 
541.713950  	37.188778 
543.150857  	37.088973 
544.587764  	37.205948 
546.024671  	37.367489 
547.461578  	37.374517 
548.898485  	37.416061 
550.335392  	37.402579 
551.772299  	37.504932 
553.209206  	37.611993 
554.646113  	37.508856 
556.083020  	37.581429 
557.519927  	37.732905 
558.956834  	37.781763 
560.393741  	37.828763 
561.830648  	37.736340 
563.267555  	37.808545 
564.704462  	38.057782 
566.141369  	38.048208 
567.578276  	38.030304 
569.015183  	38.096355 
570.452090  	38.151022 
571.888997  	38.333704 
573.325905  	38.399829 
574.762812  	38.365277 
576.199719  	38.441494 
577.636626  	38.493062 
579.073533  	38.529564 
580.510440  	38.553060 
581.947347  	38.597001 
583.384254  	38.763564 
584.821161  	38.861369 
586.258068  	38.952132 
587.694975  	39.098946 
589.131882  	39.130653 
590.568789  	39.217628 
592.005696  	39.352667 
593.442603  	39.381143 
594.879510  	39.439023 
596.316417  	39.492598 
597.753324  	39.607703 
599.190231  	39.787528 
600.627138  	39.827249 
602.064045  	39.941281 
603.500952  	40.142538 
604.937859  	40.202597 
606.374766  	40.271873 
607.811673  	40.358088 
609.248580  	40.406669 
610.685487  	40.583790 
612.122394  	40.723055 
613.559301  	40.787708 
614.996208  	40.860241 
616.433115  	40.970012 
617.870022  	41.140040 
619.306929  	41.285266 
620.743836  	41.372933 
622.180744  	41.474994 
623.617651  	41.557486 
625.054558  	41.668696 
626.491465  	41.829410 
627.928372  	41.952849 
629.365279  	42.079299 
630.802186  	42.211323 
632.239093  	42.319350 
633.676000  	42.460806 
635.112907  	42.606310 
636.549814  	42.778853 
637.986721  	42.942984 
639.423628  	43.018921 
640.860535  	43.152908 
642.297442  	43.322619 
643.734349  	43.409056 
645.171256  	43.507428 
646.608163  	43.671265 
648.045070  	43.827139 
649.481977  	43.974137 
650.918884  	44.087821 
652.355791  	44.234156 
653.792698  	44.429680 
655.229605  	44.584348 
656.666512  	44.726831 
658.103419  	44.896213 
659.540326  	45.068070 
660.977233  	45.209516 
662.414140  	45.353853 
663.851047  	45.525542 
665.287954  	45.580293 
666.724861  	45.637826 
668.161768  	45.874811 
669.598675  	46.107144 
671.035582  	46.184911 
672.472490  	46.313907 
673.909397  	46.520119 
675.346304  	46.722209 
676.783211  	46.915388 
678.220118  	47.062385 
679.657025  	47.194806 
681.093932  	47.345131 
682.530839  	47.482332 
683.967746  	47.653000 
685.404653  	47.838656 
686.841560  	48.023196 
688.278467  	48.254360 
689.715374  	48.455453 
691.152281  	48.627753 
692.589188  	48.835872 
694.026095  	49.044862 
695.463002  	49.225341 
696.899909  	49.386918 
698.336816  	49.553481 
699.773723  	49.781141 
701.210630  	50.006934 
702.647537  	50.162453 
704.084444  	50.341026 
705.521351  	50.553111 
706.958258  	50.726580 
708.395165  	50.879990 
709.832072  	51.036534 
711.268979  	51.229804 
712.705886  	51.454000 
714.142793  	51.680581 
715.579700  	51.890771 
717.016607  	52.079641 
718.453514  	52.183014 
719.890421  	52.357234 
721.327328  	52.679694 
722.764236  	52.925248 
724.201143  	53.069525 
725.638050  	53.251517 
727.074957  	53.426742 
728.511864  	53.609515 
729.948771  	53.844328 
731.385678  	54.061343 
732.822585  	54.263035 
734.259492  	54.446024 
735.696399  	54.621392 
737.133306  	54.871994 
738.570213  	55.126369 
740.007120  	55.314590 
741.444027  	55.509293 
742.880934  	55.723254 
744.317841  	55.948834 
745.754748  	56.167143 
747.191655  	56.382722 
748.628562  	56.682044 
750.065469  	56.976829 
751.502376  	57.147238 
752.939283  	57.316243 
754.376190  	57.540982 
755.813097  	57.764924 
757.250004  	57.995520 
758.686911  	58.224938 
760.123818  	58.452141 
761.560725  	58.685155 
762.997632  	58.918893 
764.434539  	59.175395 
765.871446  	59.410169 
767.308353  	59.575046 
768.745260  	59.751167 
770.182167  	60.011550 
771.619075  	60.298660 
773.055982  	60.513933 
774.492889  	60.704785 
775.929796  	60.966666 
777.366703  	61.224677 
778.803610  	61.437084 
780.240517  	61.676161 
781.677424  	61.943563 
783.114331  	62.211551 
784.551238  	62.429262 
785.988145  	62.623677 
787.425052  	62.906697 
788.861959  	63.164973 
790.298866  	63.330163 
791.735773  	63.587338 
793.172680  	63.889800 
794.609587  	64.085208 
796.046494  	64.273376 
797.483401  	64.530479 
798.920308  	64.786617 
800.357215  	64.998090 
801.794122  	65.243929 
803.231029  	65.556401 
804.667936  	65.802484 
806.104843  	66.008054 
807.541750  	66.280993 
808.978657  	66.535229 
810.415564  	66.778398 
811.852471  	67.068857 
813.289378  	67.339554 
814.726285  	67.582360 
816.163192  	67.775239 
817.600099  	67.965875 
819.037006  	68.269496 
820.473913  	68.554511 
821.910821  	68.767174 
823.347728  	69.039916 
824.784635  	69.288841 
826.221542  	69.457355 
827.658449  	69.671220 
829.095356  	69.967286 
830.532263  	70.279769 
831.969170  	70.528700 
833.406077  	70.747164 
834.842984  	71.004998 
836.279891  	71.244688 
837.716798  	71.453565 
839.153705  	71.679066 
840.590612  	71.939936 
842.027519  	72.225492 
843.464426  	72.463252 
844.901333  	72.690015 
846.338240  	72.970479 
847.775147  	73.235697 
849.212054  	73.502801 
850.648961  	73.761477 
852.085868  	73.955242 
853.522775  	74.191378 
854.959682  	74.467956 
856.396589  	74.706557 
857.833496  	74.940020 
859.270403  	75.164006 
860.707310  	75.425209 
862.144217  	75.720208 
863.581124  	75.951483 
865.018031  	76.175091 
866.454938  	76.398379 
867.891845  	76.598261 
869.328752  	76.846465 
870.765660  	77.090679 
872.202567  	77.327915 
873.639474  	77.577777 
875.076381  	77.769425 
876.513288  	77.999364 
877.950195  	78.279643 
879.387102  	78.504037 
880.824009  	78.709776 
882.260916  	78.869837 
883.697823  	79.041004 
885.134730  	79.320802 
886.571637  	79.562077 
888.008544  	79.754218 
889.445451  	79.977992 
890.882358  	80.176389 
892.319265  	80.378922 
893.756172  	80.583054 
895.193079  	80.767946 
896.629986  	80.971836 
898.066893  	81.142962 
899.503800  	81.305550 
900.940707  	81.496416 
902.377614  	81.673439 
903.814521  	81.862131 
905.251428  	82.029690 
906.688335  	82.183550 
908.125242  	82.382816 
909.562149  	82.558188 
910.999056  	82.739009 
912.435963  	82.940912 
913.872870  	83.084591 
915.309777  	83.251850 
916.746684  	83.448637 
918.183591  	83.616718 
919.620498  	83.790169 
921.057406  	83.930824 
922.494313  	84.088164 
923.931220  	84.281551 
925.368127  	84.401960 
926.805034  	84.522146 
928.241941  	84.673084 
929.678848  	84.804717 
931.115755  	84.964616 
932.552662  	85.092777 
933.989569  	85.200203 
935.426476  	85.353485 
936.863383  	85.459844 
938.300290  	85.542452 
939.737197  	85.651879 
941.174104  	85.754277 
942.611011  	85.868941 
944.047918  	85.954472 
945.484825  	86.038870 
946.921732  	86.169641 
948.358639  	86.260313 
949.795546  	86.367279 
951.232453  	86.535029 
952.669360  	86.664323 
954.106267  	86.761175 
955.543174  	86.842413 
956.980081  	86.936070 
958.416988  	87.060804 
959.853895  	87.153959 
961.290802  	87.258001 
962.727709  	87.356347 
964.164616  	87.388660 
965.601523  	87.463931 
967.038430  	87.584171 
968.475337  	87.690355 
969.912244  	87.788485 
971.349152  	87.829667 
972.786059  	87.863347 
974.222966  	87.929213 
975.659873  	88.000479 
977.096780  	88.113629 
978.533687  	88.204750 
979.970594  	88.267177 
981.407501  	88.356824 
982.844408  	88.389206 
984.281315  	88.420586 
985.718222  	88.499531 
987.155129  	88.533936 
988.592036  	88.585527 
990.028943  	88.653114 
991.465850  	88.695569 
992.902757  	88.777105 
994.339664  	88.830896 
995.776571  	88.863834 
997.213478  	88.938752 
998.650385  	88.974754 
1000.087292  	89.005382 
1001.524199  	89.063139 
1002.961106  	89.099955 
1004.398013  	89.145593 
1005.834920  	89.170732 
1007.271827  	89.182628 
1008.708734  	89.229452 
1010.145641  	89.273053 
1011.582548  	89.336626 
1013.019455  	89.401571 
1014.456362  	89.427896 
1015.893269  	89.471028 
1017.330176  	89.504100 
1018.767083  	89.530368 
1020.203991  	89.568118 
1021.640898  	89.565078 
1023.077805  	89.594476 
1024.514712  	89.649997 
1025.951619  	89.656322 
1027.388526  	89.691867 
1028.825433  	89.727610 
1030.262340  	89.724778 
1031.699247  	89.747796 
1033.136154  	89.763243 
1034.573061  	89.784392 
1036.009968  	89.811952 
1037.446875  	89.794027 
1038.883782  	89.802233 
1040.320689  	89.833991 
1041.757596  	89.851582 
1043.194503  	89.888726 
1044.631410  	89.908653 
1046.068317  	89.927836 
1047.505224  	89.951911 
1048.942131  	89.942975 
1050.379038  	89.968318 
1051.815945  	89.995510 
1053.252852  	89.983508 
1054.689759  	90.003841 
1056.126666  	90.019088 
1057.563573  	90.019805 
1059.000480  	90.037816 
1060.437387  	90.047886 
1061.874294  	90.085774 
1063.311201  	90.115670 
1064.748108  	90.092868 
1066.185015  	90.074604 
1067.621922  	90.057362 
1069.058829  	90.056130 
1070.495737  	90.075046 
1071.932644  	90.071181 
1073.369551  	90.070420 
1074.806458  	90.051808 
1076.243365  	90.036809 
1077.680272  	90.069353 
1079.117179  	90.062510 
1080.554086  	90.041821 
1081.990993  	90.045452 
1083.427900  	90.018499 
1084.864807  	90.005557 
1086.301714  	89.988231 
1087.738621  	89.969491 
1089.175528  	89.999869 
1090.612435  	89.983259 
1092.049342  	89.961214 
1093.486249  	89.979456 
1094.923156  	89.947227 
1096.360063  	89.957141 
1097.796970  	89.998839 
1099.233877  	89.979154 
1100.670784  	89.989202 
1102.107691  	89.987399 
1103.544598  	89.967931 
1104.981505  	90.013050 
1106.418412  	90.031658 
1107.855319  	90.048754 
1109.292226  	90.091078 
1110.729133  	90.083410 
1112.166040  	90.099026 
1113.602947  	90.109047 
1115.039854  	90.088250 
1116.476761  	90.146150 
1117.913668  	90.200982 
1119.350575  	90.199593 
1120.787483  	90.199396 
1122.224390  	90.185839 
1123.661297  	90.191340 
1125.098204  	90.196779 
1126.535111  	90.187130 
1127.972018  	90.222641 
1129.408925  	90.259116 
1130.845832  	90.295086 
1132.282739  	90.332770 
1133.719646  	90.326062 
1135.156553  	90.353035 
1136.593460  	90.382486 
1138.030367  	90.367108 
1139.467274  	90.403220 
1140.904181  	90.425680 
1142.341088  	90.409843 
1143.777995  	90.449276 
1145.214902  	90.480012 
1146.651809  	90.477532 
1148.088716  	90.477716 
1149.525623  	90.481901 
1150.962530  	90.507184 
1152.399437  	90.501675 
1153.836344  	90.483237 
1155.273251  	90.496744 
1156.710158  	90.485612 
1158.147065  	90.496130 
1159.583972  	90.528624 
1161.020879  	90.512870 
1162.457786  	90.517976 
1163.894693  	90.519115 
1165.331600  	90.477743 
1166.768507  	90.486071 
1168.205414  	90.519827 
1169.642322  	90.533523 
1171.079229  	90.532563 
1172.516136  	90.518523 
1173.953043  	90.544198 
1175.389950  	90.563440 
1176.826857  	90.538931 
1178.263764  	90.548157 
1179.700671  	90.553851 
1181.137578  	90.528852 
1182.574485  	90.520720 
1184.011392  	90.507052 
1185.448299  	90.501729 
1186.885206  	90.513862 
1188.322113  	90.510218 
1189.759020  	90.509489 
1191.195927  	90.515847 
1192.632834  	90.524974 
1194.069741  	90.526368 
1195.506648  	90.506706 
1196.943555  	90.501382 
1198.380462  	90.491477 
1199.817369  	90.462430 
1201.254276  	90.458339 
1202.691183  	90.459512 
1204.128090  	90.461386 
1205.564997  	90.470529 
1207.001904  	90.461400 
1208.438811  	90.457964 
1209.875718  	90.446895 
1211.312625  	90.432110 
1212.749532  	90.455704 
1214.186439  	90.455489 
1215.623346  	90.437543 
1217.060253  	90.451516 
1218.497160  	90.441948 
1219.934068  	90.427484 
1221.370975  	90.430569 
1222.807882  	90.421254 
1224.244789  	90.430418 
1225.681696  	90.427613 
1227.118603  	90.400427 
1228.555510  	90.406658 
1229.992417  	90.410759 
1231.429324  	90.398865 
1232.866231  	90.399310 
1234.303138  	90.395881 
1235.740045  	90.397007 
1237.176952  	90.394264 
1238.613859  	90.382322 
1240.050766  	90.379779 
1241.487673  	90.367215 
1242.924580  	90.356157 
1244.361487  	90.355056 
1245.798394  	90.345976 
1247.235301  	90.337631 
1248.672208  	90.311346 
1250.109115  	90.285191 
1251.546022  	90.284817 
1252.982929  	90.266768 
1254.419836  	90.251689 
1255.856743  	90.254199 
1257.293650  	90.238492 
1258.730557  	90.231252 
1260.167464  	90.225478 
1261.604371  	90.212694 
1263.041278  	90.216909 
1264.478185  	90.203846 
1265.915092  	90.190989 
1267.351999  	90.198170 
1268.788907  	90.189290 
1270.225814  	90.182531 
1271.662721  	90.167954 
1273.099628  	90.141692 
1274.536535  	90.134807 
1275.973442  	90.115453 
1277.410349  	90.106449 
1278.847256  	90.118467 
1280.284163  	90.100536 
1281.721070  	90.096572 
1283.157977  	90.108058 
1284.594884  	90.111364 
1286.031791  	90.148606 
1287.468698  	90.165548 
1288.905605  	90.145237 
1290.342512  	90.142240 
1291.779419  	90.138602 
1293.216326  	90.158404 
1294.653233  	90.185949 
1296.090140  	90.170074 
1297.527047  	90.171659 
1298.963954  	90.197644 
1300.400861  	90.213764 
1301.837768  	90.223199 
1303.274675  	90.218019 
1304.711582  	90.231793 
1306.148489  	90.246160 
1307.585396  	90.249498 
1309.022303  	90.265844 
1310.459210  	90.269666 
1311.896117  	90.246750 
1313.333024  	90.245214 
1314.769931  	90.250059 
1316.206838  	90.259614 
1317.643745  	90.263651 
1319.080653  	90.256485 
1320.517560  	90.268548 
1321.954467  	90.273251 
1323.391374  	90.268961 
1324.828281  	90.282465 
1326.265188  	90.278041 
1327.702095  	90.262368 
1329.139002  	90.265698 
1330.575909  	90.247778 
1332.012816  	90.235460 
1333.449723  	90.234387 
1334.886630  	90.213047 
1336.323537  	90.201489 
1337.760444  	90.167617 
1339.197351  	90.129813 
1340.634258  	90.133032 
1342.071165  	90.135325 
1343.508072  	90.125510 
1344.944979  	90.099636 
1346.381886  	90.076300 
1347.818793  	90.066097 
1349.255700  	90.051092 
1350.692607  	90.017704 
1352.129514  	90.004241 
1353.566421  	89.981603 
1355.003328  	89.957754 
1356.440235  	89.940059 
1357.877142  	89.907771 
1359.314049  	89.898972 
1360.750956  	89.878281 
1362.187863  	89.811371 
1363.624770  	89.768479 
1365.061677  	89.750971 
1366.498584  	89.726120 
1367.935491  	89.689780 
1369.372399  	89.632893 
1370.809306  	89.577960 
1372.246213  	89.512870 
1373.683120  	89.431432 
1375.120027  	89.367895 
1376.556934  	89.326837 
1377.993841  	89.277930 
1379.430748  	89.232224 
1380.867655  	89.176659 
1382.304562  	89.148938 
1383.741469  	89.134017 
1385.178376  	89.105099 
1386.615283  	89.081881 
1388.052190  	89.060844 
1389.489097  	89.045815 
1390.926004  	89.053527 
1392.362911  	89.065127 
1393.799818  	89.051763 
1395.236725  	89.063200 
1396.673632  	89.105188 
1398.110539  	89.158942 
1399.547446  	89.198317 
1400.984353  	89.229961 
1402.421260  	89.258201 
1403.858167  	89.258889 
1405.295074  	89.274460 
1406.731981  	89.324998 
1408.168888  	89.349801 
1409.605795  	89.387746 
1411.042702  	89.434398 
1412.479609  	89.449180 
1413.916516  	89.486385 
1415.353423  	89.491284 
1416.790330  	89.473490 
1418.227238  	89.516886 
1419.664145  	89.587481 
1421.101052  	89.626411 
1422.537959  	89.630063 
1423.974866  	89.617678 
1425.411773  	89.653781 
1426.848680  	89.682736 
1428.285587  	89.679439 
1429.722494  	89.690337 
1431.159401  	89.696325 
1432.596308  	89.694772 
1434.033215  	89.668568 
1435.470122  	89.636431 
1436.907029  	89.645032 
1438.343936  	89.664851 
1439.780843  	89.676415 
1441.217750  	89.691115 
1442.654657  	89.675052 
1444.091564  	89.668099 
1445.528471  	89.663756 
1446.965378  	89.639120 
1448.402285  	89.638387 
1449.839192  	89.663297 
1451.276099  	89.658390 
1452.713006  	89.654612 
1454.149913  	89.639967 
1455.586820  	89.610317 
1457.023727  	89.605087 
1458.460634  	89.618685 
1459.897541  	89.629679 
1461.334448  	89.604474 
1462.771355  	89.563236 
1464.208262  	89.529402 
1465.645169  	89.528754 
1467.082076  	89.569940 
1468.518984  	89.574778 
1469.955891  	89.555816 
1471.392798  	89.547083 
1472.829705  	89.519828 
1474.266612  	89.476311 
1475.703519  	89.474383 
1477.140426  	89.471986 
1478.577333  	89.476696 
1480.014240  	89.484709 
1481.451147  	89.453758 
1482.888054  	89.458578 
1484.324961  	89.452640 
1485.761868  	89.399600 
1487.198775  	89.359180 
1488.635682  	89.316481 
1490.072589  	89.278325 
1491.509496  	89.247084 
1492.946403  	89.213524 
1494.383310  	89.181047 
1495.820217  	89.125235 
1497.257124  	89.070896 
1498.694031  	89.100090 
1500.130938  	89.093297 
1501.567845  	89.049805 
1503.004752  	88.999746 
1504.441659  	88.925997 
1505.878566  	88.889904 
1507.315473  	88.869763 
1508.752380  	88.747602 
1510.189287  	88.722601 
1511.626194  	88.697883 
1513.063101  	88.642824 
1514.500008  	88.602438 
1515.936915  	88.514990 
1517.373822  	88.443737 
1518.810730  	88.444161 
1520.247637  	88.397749 
1521.684544  	88.331873 
1523.121451  	88.235214 
1524.558358  	88.173483 
1525.995265  	88.131670 
1527.432172  	88.055143 
1528.869079  	87.996607 
1530.305986  	87.947243 
1531.742893  	87.826255 
1533.179800  	87.742879 
1534.616707  	87.627149 
1536.053614  	87.510503 
1537.490521  	87.433491 
1538.927428  	87.271748 
1540.364335  	87.079808 
1541.801242  	86.984251 
1543.238149  	86.795262 
1544.675056  	86.686757 
1546.111963  	86.588669 
1547.548870  	86.445788 
1548.985777  	86.308037 
1550.422684  	86.155114 
1551.859591  	86.020550 
1553.296498  	85.914701 
1554.733405  	85.719252 
1556.170312  	85.535284 
1557.607219  	85.371795 
1559.044126  	85.095348 
1560.481033  	85.039772 
1561.917940  	84.894580 
1563.354847  	84.738717 
1564.791754  	84.590526 
1566.228661  	84.342114 
1567.665569  	84.191788 
1569.102476  	84.097436 
1570.539383  	83.969652 
1571.976290  	83.880934 
1573.413197  	83.643197 
1574.850104  	83.404854 
1576.287011  	83.266812 
1577.723918  	83.111386 
1579.160825  	82.964057 
1580.597732  	82.830015 
1582.034639  	82.635514 
1583.471546  	82.476636 
1584.908453  	82.266344 
1586.345360  	81.987601 
1587.782267  	81.838471 
1589.219174  	81.607447 
1590.656081  	81.341301 
1592.092988  	81.076765 
1593.529895  	80.784671 
1594.966802  	80.533031 
1596.403709  	80.270623 
1597.840616  	79.964218 
1599.277523  	79.697984 
1600.714430  	79.295871 
1602.151337  	78.885858 
1603.588244  	78.498490 
1605.025151  	78.038207 
1606.462058  	77.639207 
1607.898965  	77.230931 
1609.335872  	76.751627 
1610.772779  	76.339781 
1612.209686  	75.880542 
1613.646593  	75.398892 
1615.083500  	75.012680 
1616.520407  	74.549379 
1617.957315  	74.146881 
1619.394222  	73.699163 
1620.831129  	73.113636 
1622.268036  	72.728636 
1623.704943  	72.387277 
1625.141850  	71.953182 
1626.578757  	71.651685 
1628.015664  	71.303393 
1629.452571  	71.132714 
1630.889478  	71.003043 
1632.326385  	70.654700 
1633.763292  	70.437625 
1635.200199  	70.421035 
1636.637106  	70.577818 
1638.074013  	70.712429 
1639.510920  	70.610041 
1640.947827  	70.633157 
1642.384734  	70.828258 
1643.821641  	70.875245 
1645.258548  	71.039183 
1646.695455  	71.511018 
1648.132362  	71.959359 
1649.569269  	72.160825 
1651.006176  	72.130790 
1652.443083  	72.092877 
1653.879990  	73.283279 
1655.316897  	73.605008 
1656.753804  	73.781718 
1658.190711  	74.150299 
1659.627618  	74.451272 
1661.064525  	74.849417 
1662.501432  	75.317934 
1663.938339  	75.850702 
1665.375246  	76.365140 
1666.812154  	76.695452 
1668.249061  	77.050326 
1669.685968  	77.624318 
1671.122875  	78.084325 
1672.559782  	78.481879 
1673.996689  	78.882012 
1675.433596  	79.328479 
1676.870503  	79.936588 
1678.307410  	80.320525 
1679.744317  	80.693383 
1681.181224  	81.177331 
1682.618131  	81.522577 
1684.055038  	81.955386 
1685.491945  	82.668532 
1686.928852  	82.955198 
1688.365759  	83.327830 
1689.802666  	83.791774 
1691.239573  	84.212431 
1692.676480  	84.641662 
1694.113387  	84.951877 
1695.550294  	85.342830 
1696.987201  	85.821013 
1698.424108  	86.008740 
1699.861015  	86.335715 
1701.297922  	86.873234 
1702.734829  	86.992818 
1704.171736  	87.252353 
1705.608643  	87.546373 
1707.045550  	87.864977 
1708.482457  	88.230408 
1709.919364  	88.531100 
1711.356271  	88.825063 
1712.793178  	89.124041 
1714.230085  	89.346625 
1715.666992  	89.634316 
1717.103900  	89.941633 
1718.540807  	90.184982 
1719.977714  	90.499516 
1721.414621  	90.724786 
1722.851528  	90.945690 
1724.288435  	91.249727 
1725.725342  	91.517826 
1727.162249  	91.774961 
1728.599156  	91.916148 
1730.036063  	92.039758 
1731.472970  	92.192671 
1732.909877  	92.275975 
1734.346784  	92.389567 
1735.783691  	92.608287 
1737.220598  	92.694039 
1738.657505  	92.810817 
1740.094412  	92.960181 
1741.531319  	93.052650 
1742.968226  	93.213137 
1744.405133  	93.319042 
1745.842040  	93.399670 
1747.278947  	93.550010 
1748.715854  	93.599348 
1750.152761  	93.669477 
1751.589668  	93.819966 
1753.026575  	93.917583 
1754.463482  	94.072701 
1755.900389  	94.184115 
1757.337296  	94.223867 
1758.774203  	94.336488 
1760.211110  	94.401891 
1761.648017  	94.466846 
1763.084924  	94.578895 
1764.521831  	94.648320 
1765.958738  	94.750157 
1767.395646  	94.785422 
1768.832553  	94.774886 
1770.269460  	94.847638 
1771.706367  	94.901294 
1773.143274  	94.942676 
1774.580181  	95.014797 
1776.017088  	95.014522 
1777.453995  	95.052221 
1778.890902  	95.105578 
1780.327809  	95.114202 
1781.764716  	95.188233 
1783.201623  	95.238405 
1784.638530  	95.276132 
1786.075437  	95.364793 
1787.512344  	95.362397 
1788.949251  	95.354427 
1790.386158  	95.418942 
1791.823065  	95.450007 
1793.259972  	95.561097 
1794.696879  	95.545424 
1796.133786  	95.531048 
1797.570693  	95.649494 
1799.007600  	95.654676 
1800.444507  	95.623704 
1801.881414  	95.635057 
1803.318321  	95.632641 
1804.755228  	95.741716 
1806.192135  	95.786082 
1807.629042  	95.750873 
1809.065949  	95.795067 
1810.502856  	95.813322 
1811.939763  	95.847546 
1813.376670  	95.938051 
1814.813577  	96.002170 
1816.250485  	96.044402 
1817.687392  	96.017036 
1819.124299  	95.980413 
1820.561206  	96.013556 
1821.998113  	96.009770 
1823.435020  	96.040160 
1824.871927  	96.078095 
1826.308834  	96.018579 
1827.745741  	96.045273 
1829.182648  	96.084222 
1830.619555  	96.043110 
1832.056462  	96.070096 
1833.493369  	96.080942 
1834.930276  	96.082637 
1836.367183  	96.130427 
1837.804090  	96.170905 
1839.240997  	96.231282 
1840.677904  	96.246942 
1842.114811  	96.203100 
1843.551718  	96.234792 
1844.988625  	96.181397 
1846.425532  	96.172862 
1847.862439  	96.235236 
1849.299346  	96.192611 
1850.736253  	96.228421 
1852.173160  	96.275358 
1853.610067  	96.231875 
1855.046974  	96.283109 
1856.483881  	96.315097 
1857.920788  	96.315494 
1859.357695  	96.326895 
1860.794602  	96.249835 
1862.231509  	96.277901 
1863.668416  	96.351613 
1865.105323  	96.291765 
1866.542231  	96.311057 
1867.979138  	96.309359 
1869.416045  	96.247521 
1870.852952  	96.308632 
1872.289859  	96.294132 
1873.726766  	96.275068 
1875.163673  	96.337587 
1876.600580  	96.316599 
1878.037487  	96.339348 
1879.474394  	96.338281 
1880.911301  	96.326380 
1882.348208  	96.394173 
1883.785115  	96.401129 
1885.222022  	96.362516 
1886.658929  	96.353380 
1888.095836  	96.340311 
1889.532743  	96.383975 
1890.969650  	96.413259 
1892.406557  	96.400904 
1893.843464  	96.363669 
1895.280371  	96.252041 
1896.717278  	96.315201 
1898.154185  	96.425012 
1899.591092  	96.290404 
1901.027999  	96.308182 
1902.464906  	96.357806 
1903.901813  	96.250137 
1905.338720  	96.291060 
1906.775627  	96.304083 
1908.212534  	96.340601 
1909.649441  	96.456787 
1911.086348  	96.379801 
1912.523255  	96.388346 
1913.960162  	96.406511 
1915.397069  	96.349261 
1916.833977  	96.409486 
1918.270884  	96.367381 
1919.707791  	96.297444 
1921.144698  	96.341119 
1922.581605  	96.319952 
1924.018512  	96.354537 
1925.455419  	96.436503 
1926.892326  	96.442653 
1928.329233  	96.538443 
1929.766140  	96.433532 
1931.203047  	96.359305 
1932.639954  	96.559079 
1934.076861  	96.454646 
1935.513768  	96.367536 
1936.950675  	96.470940 
1938.387582  	96.405769 
1939.824489  	96.482175 
1941.261396  	96.494315 
1942.698303  	96.372424 
1944.135210  	96.458167 
1945.572117  	96.437991 
1947.009024  	96.530056 
1948.445931  	96.605004 
1949.882838  	96.410477 
1951.319745  	96.542474 
1952.756652  	96.575481 
1954.193559  	96.424612 
1955.630466  	96.507556 
1957.067373  	96.381529 
1958.504280  	96.270798 
1959.941187  	96.448309 
1961.378094  	96.370228 
1962.815001  	96.361055 
1964.251908  	96.415177 
1965.688816  	96.337327 
1967.125723  	96.474818 
1968.562630  	96.367977 
1969.999537  	96.056727 
1971.436444  	96.122263 
1972.873351  	96.059687 
1974.310258  	96.270309 
1975.747165  	96.477428 
1977.184072  	96.221167 
1978.620979  	96.133075 
1980.057886  	95.898566 
1981.494793  	95.759246 
1982.931700  	95.848036 
1984.368607  	95.738140 
1985.805514  	95.572742 
1987.242421  	95.494035 
1988.679328  	95.616803 
1990.116235  	95.650378 
1991.553142  	95.696582 
1992.990049  	95.639675 
1994.426956  	95.645617 
1995.863863  	95.532283 
1997.300770  	95.454914 
1998.737677  	95.774291 
2000.174584  	95.812623 
2001.611491  	95.915647 
2003.048398  	95.948855 
2004.485305  	95.887564 
2005.922212  	95.971466 
2007.359119  	95.704122 
2008.796026  	95.719424 
2010.232933  	95.990431 
2011.669840  	95.771178 
2013.106747  	95.829759 
2014.543654  	95.885516 
2015.980562  	95.614552 
2017.417469  	95.633836 
2018.854376  	95.581359 
2020.291283  	95.666197 
2021.728190  	95.792514 
2023.165097  	95.493778 
2024.602004  	95.697530 
2026.038911  	95.927815 
2027.475818  	95.623414 
2028.912725  	95.649023 
2030.349632  	95.617276 
2031.786539  	95.590462 
2033.223446  	95.749759 
2034.660353  	95.424099 
2036.097260  	95.229455 
2037.534167  	95.264074 
2038.971074  	95.198361 
2040.407981  	95.380266 
2041.844888  	95.415292 
2043.281795  	95.375481 
2044.718702  	95.308316 
2046.155609  	94.937194 
2047.592516  	94.935333 
2049.029423  	94.938044 
2050.466330  	94.637908 
2051.903237  	94.914275 
2053.340144  	95.171978 
2054.777051  	94.977558 
2056.213958  	94.965004 
2057.650865  	94.973893 
2059.087772  	94.968487 
2060.524679  	95.069902 
2061.961586  	95.009318 
2063.398493  	94.975251 
2064.835401  	94.972724 
2066.272308  	94.911154 
2067.709215  	94.924405 
2069.146122  	94.858471 
2070.583029  	94.808846 
2072.019936  	94.842540 
2073.456843  	94.836495 
2074.893750  	94.878875 
2076.330657  	94.793563 
2077.767564  	94.648020 
2079.204471  	94.637728 
2080.641378  	94.547945 
2082.078285  	94.559779 
2083.515192  	94.694721 
2084.952099  	94.629194 
2086.389006  	94.640370 
2087.825913  	94.775603 
2089.262820  	94.822021 
2090.699727  	94.864095 
2092.136634  	94.807661 
2093.573541  	94.763842 
2095.010448  	94.812573 
2096.447355  	94.728591 
2097.884262  	94.651859 
2099.321169  	94.613034 
2100.758076  	94.592953 
2102.194983  	94.711567 
2103.631890  	94.667455 
2105.068797  	94.529081 
2106.505704  	94.609297 
2107.942611  	94.698066 
2109.379518  	94.741828 
2110.816425  	94.749177 
2112.253332  	94.666230 
2113.690239  	94.602428 
2115.127147  	94.543164 
2116.564054  	94.633239 
2118.000961  	94.810951 
2119.437868  	94.722854 
2120.874775  	94.673447 
2122.311682  	94.825734 
2123.748589  	94.856999 
2125.185496  	94.849836 
2126.622403  	94.858831 
2128.059310  	94.909677 
2129.496217  	95.069940 
2130.933124  	95.106116 
2132.370031  	95.090777 
2133.806938  	95.075865 
2135.243845  	94.936893 
2136.680752  	94.924851 
2138.117659  	94.999927 
2139.554566  	95.061839 
2140.991473  	95.173802 
2142.428380  	95.182196 
2143.865287  	95.272773 
2145.302194  	95.330102 
2146.739101  	95.253012 
2148.176008  	95.490381 
2149.612915  	95.597320 
2151.049822  	95.417196 
2152.486729  	95.404917 
2153.923636  	95.347984 
2155.360543  	95.652097 
2156.797450  	96.181904 
2158.234357  	95.832806 
2159.671264  	95.371667 
2161.108171  	95.268426 
2162.545078  	95.061481 
2163.981985  	94.923313 
2165.418893  	94.735579 
2166.855800  	94.742147 
2168.292707  	94.990475 
2169.729614  	95.022234 
2171.166521  	95.181339 
2172.603428  	95.369824 
2174.040335  	95.266716 
2175.477242  	95.193879 
2176.914149  	95.036721 
2178.351056  	94.942215 
2179.787963  	95.122282 
2181.224870  	95.166596 
2182.661777  	95.106946 
2184.098684  	95.050431 
2185.535591  	95.083469 
2186.972498  	95.256027 
2188.409405  	95.129944 
2189.846312  	95.027193 
2191.283219  	95.186112 
2192.720126  	95.080327 
2194.157033  	95.012575 
2195.593940  	95.187370 
2197.030847  	95.237853 
2198.467754  	95.305331 
2199.904661  	95.323049 
2201.341568  	95.232450 
2202.778475  	95.246854 
2204.215382  	95.268292 
2205.652289  	95.308153 
2207.089196  	95.383529 
2208.526103  	95.416403 
2209.963010  	95.387080 
2211.399917  	95.219646 
2212.836824  	95.207329 
2214.273732  	95.396380 
2215.710639  	95.427829 
2217.147546  	95.419056 
2218.584453  	95.372449 
2220.021360  	95.347425 
2221.458267  	95.580800 
2222.895174  	95.634464 
2224.332081  	95.477406 
2225.768988  	95.502400 
2227.205895  	95.512901 
2228.642802  	95.498348 
2230.079709  	95.492082 
2231.516616  	95.442591 
2232.953523  	95.598870 
2234.390430  	95.764449 
2235.827337  	95.741780 
2237.264244  	95.700916 
2238.701151  	95.596118 
2240.138058  	95.553140 
2241.574965  	95.618134 
2243.011872  	95.622905 
2244.448779  	95.660294 
2245.885686  	95.674490 
2247.322593  	95.619863 
2248.759500  	95.611656 
2250.196407  	95.632456 
2251.633314  	95.736076 
2253.070221  	95.784697 
2254.507128  	95.705193 
2255.944035  	95.757195 
2257.380942  	95.780570 
2258.817849  	95.706539 
2260.254756  	95.774431 
2261.691663  	95.840062 
2263.128570  	95.850691 
2264.565478  	95.847555 
2266.002385  	95.811841 
2267.439292  	95.901793 
2268.876199  	95.961034 
2270.313106  	95.871162 
2271.750013  	95.848031 
2273.186920  	95.867062 
2274.623827  	95.883353 
2276.060734  	95.888632 
2277.497641  	95.877946 
2278.934548  	95.951509 
2280.371455  	95.946680 
2281.808362  	95.861700 
2283.245269  	95.872651 
2284.682176  	95.831118 
2286.119083  	95.817443 
2287.555990  	95.914789 
2288.992897  	95.900143 
2290.429804  	95.878582 
2291.866711  	95.928782 
2293.303618  	95.936490 
2294.740525  	95.973174 
2296.177432  	96.005527 
2297.614339  	96.017040 
2299.051246  	96.013602 
2300.488153  	96.041924 
2301.925060  	96.026740 
2303.361967  	96.031768 
2304.798874  	95.994135 
2306.235781  	96.024841 
2307.672688  	96.055841 
2309.109595  	95.998717 
2310.546502  	95.965924 
2311.983409  	95.948494 
2313.420317  	95.947170 
2314.857224  	95.966554 
2316.294131  	95.933789 
2317.731038  	95.889928 
2319.167945  	95.866478 
2320.604852  	95.895763 
2322.041759  	95.928844 
2323.478666  	95.855163 
2324.915573  	95.893729 
2326.352480  	96.099359 
2327.789387  	96.205016 
2329.226294  	96.211186 
2330.663201  	96.219123 
2332.100108  	96.254272 
2333.537015  	96.332464 
2334.973922  	96.338592 
2336.410829  	96.314586 
2337.847736  	96.338602 
2339.284643  	96.318180 
2340.721550  	96.283739 
2342.158457  	96.238721 
2343.595364  	96.182916 
2345.032271  	96.177892 
2346.469178  	96.177979 
2347.906085  	96.250716 
2349.342992  	96.348191 
2350.779899  	96.353557 
2352.216806  	96.377404 
2353.653713  	96.433132 
2355.090620  	96.441061 
2356.527527  	96.478661 
2357.964434  	96.506999 
2359.401341  	96.512072 
2360.838248  	96.529733 
2362.275155  	96.529108 
2363.712063  	96.544323 
2365.148970  	96.582590 
2366.585877  	96.570330 
2368.022784  	96.577602 
2369.459691  	96.594834 
2370.896598  	96.621293 
2372.333505  	96.652991 
2373.770412  	96.665214 
2375.207319  	96.691939 
2376.644226  	96.726283 
2378.081133  	96.740304 
2379.518040  	96.780323 
2380.954947  	96.821360 
2382.391854  	96.859156 
2383.828761  	96.894362 
2385.265668  	96.896215 
2386.702575  	96.917396 
2388.139482  	96.961158 
2389.576389  	96.948296 
2391.013296  	96.948710 
2392.450203  	96.962305 
2393.887110  	96.992016 
2395.324017  	97.028249 
2396.760924  	96.985710 
2398.197831  	96.998460 
2399.634738  	97.068958 
2401.071645  	97.036436 
2402.508552  	97.025618 
2403.945459  	97.059486 
2405.382366  	97.079475 
2406.819273  	97.149977 
2408.256180  	97.157744 
2409.693087  	97.121784 
2411.129994  	97.153273 
2412.566901  	97.180591 
2414.003809  	97.232525 
2415.440716  	97.261042 
2416.877623  	97.239560 
2418.314530  	97.302712 
2419.751437  	97.312416 
2421.188344  	97.239535 
2422.625251  	97.247505 
2424.062158  	97.252098 
2425.499065  	97.280200 
2426.935972  	97.350276 
2428.372879  	97.320394 
2429.809786  	97.283178 
2431.246693  	97.283783 
2432.683600  	97.284131 
2434.120507  	97.336388 
2435.557414  	97.357490 
2436.994321  	97.328254 
2438.431228  	97.306469 
2439.868135  	97.295427 
2441.305042  	97.332573 
2442.741949  	97.345546 
2444.178856  	97.344417 
2445.615763  	97.399353 
2447.052670  	97.387211 
2448.489577  	97.382515 
2449.926484  	97.459471 
2451.363391  	97.434941 
2452.800298  	97.374126 
2454.237205  	97.400554 
2455.674112  	97.441794 
2457.111019  	97.443963 
2458.547926  	97.382477 
2459.984833  	97.367957 
2461.421740  	97.427386 
2462.858648  	97.424988 
2464.295555  	97.441714 
2465.732462  	97.482587 
2467.169369  	97.448760 
2468.606276  	97.463261 
2470.043183  	97.497675 
2471.480090  	97.465652 
2472.916997  	97.466445 
2474.353904  	97.486835 
2475.790811  	97.515919 
2477.227718  	97.561286 
2478.664625  	97.533329 
2480.101532  	97.494880 
2481.538439  	97.534375 
2482.975346  	97.598813 
2484.412253  	97.631797 
2485.849160  	97.609861 
2487.286067  	97.585283 
2488.722974  	97.592866 
2490.159881  	97.593008 
2491.596788  	97.603014 
2493.033695  	97.636209 
2494.470602  	97.655469 
2495.907509  	97.651435 
2497.344416  	97.654286 
2498.781323  	97.670586 
2500.218230  	97.649259 
2501.655137  	97.637628 
2503.092044  	97.697918 
2504.528951  	97.721865 
2505.965858  	97.681756 
2507.402765  	97.657755 
2508.839672  	97.658309 
2510.276579  	97.683742 
2511.713486  	97.709440 
2513.150394  	97.735275 
2514.587301  	97.750765 
2516.024208  	97.677718 
2517.461115  	97.633842 
2518.898022  	97.719473 
2520.334929  	97.785010 
2521.771836  	97.797918 
2523.208743  	97.800330 
2524.645650  	97.775365 
2526.082557  	97.769636 
2527.519464  	97.783818 
2528.956371  	97.797961 
2530.393278  	97.788360 
2531.830185  	97.749628 
2533.267092  	97.787910 
2534.703999  	97.846394 
2536.140906  	97.820854 
2537.577813  	97.826263 
2539.014720  	97.873230 
2540.451627  	97.886036 
2541.888534  	97.862356 
2543.325441  	97.820191 
2544.762348  	97.843603 
2546.199255  	97.864880 
2547.636162  	97.812061 
2549.073069  	97.837583 
2550.509976  	97.889913 
2551.946883  	97.857809 
2553.383790  	97.850749 
2554.820697  	97.877304 
2556.257604  	97.899306 
2557.694511  	97.892673 
2559.131418  	97.844886 
2560.568325  	97.862029 
2562.005232  	97.893811 
2563.442140  	97.864870 
2564.879047  	97.880339 
2566.315954  	97.902642 
2567.752861  	97.892560 
2569.189768  	97.916875 
2570.626675  	97.930794 
2572.063582  	97.923721 
2573.500489  	97.920398 
2574.937396  	97.915090 
2576.374303  	97.925525 
2577.811210  	97.928986 
2579.248117  	97.947281 
2580.685024  	97.977707 
2582.121931  	97.945175 
2583.558838  	97.908457 
2584.995745  	97.911370 
2586.432652  	97.908239 
2587.869559  	97.904292 
2589.306466  	97.900326 
2590.743373  	97.925917 
2592.180280  	97.962523 
2593.617187  	97.932941 
2595.054094  	97.897080 
2596.491001  	97.892200 
2597.927908  	97.902072 
2599.364815  	97.946683 
2600.801722  	97.957117 
2602.238629  	97.938868 
2603.675536  	97.950803 
2605.112443  	97.930497 
2606.549350  	97.896543 
2607.986257  	97.897764 
2609.423164  	97.908682 
2610.860071  	97.922331 
2612.296979  	97.910009 
2613.733886  	97.895517 
2615.170793  	97.896391 
2616.607700  	97.866762 
2618.044607  	97.863656 
2619.481514  	97.884132 
2620.918421  	97.869844 
2622.355328  	97.872277 
2623.792235  	97.862593 
2625.229142  	97.832423 
2626.666049  	97.839469 
2628.102956  	97.828307 
2629.539863  	97.813640 
2630.976770  	97.819861 
2632.413677  	97.799023 
2633.850584  	97.809447 
2635.287491  	97.833696 
2636.724398  	97.818860 
2638.161305  	97.827369 
2639.598212  	97.820229 
2641.035119  	97.781758 
2642.472026  	97.788005 
2643.908933  	97.801296 
2645.345840  	97.794495 
2646.782747  	97.789976 
2648.219654  	97.787663 
2649.656561  	97.792630 
2651.093468  	97.771853 
2652.530375  	97.742153 
2653.967282  	97.746027 
2655.404189  	97.744702 
2656.841096  	97.746538 
2658.278003  	97.761266 
2659.714910  	97.750358 
2661.151817  	97.745380 
2662.588725  	97.756866 
2664.025632  	97.763558 
2665.462539  	97.785857 
2666.899446  	97.812503 
2668.336353  	97.823741 
2669.773260  	97.815184 
2671.210167  	97.792959 
2672.647074  	97.784330 
2674.083981  	97.783123 
2675.520888  	97.791741 
2676.957795  	97.806553 
2678.394702  	97.785535 
2679.831609  	97.764045 
2681.268516  	97.772396 
2682.705423  	97.779585 
2684.142330  	97.794201 
2685.579237  	97.797899 
2687.016144  	97.785393 
2688.453051  	97.793398 
2689.889958  	97.791711 
2691.326865  	97.780087 
2692.763772  	97.781119 
2694.200679  	97.773658 
2695.637586  	97.777158 
2697.074493  	97.775561 
2698.511400  	97.746091 
2699.948307  	97.735990 
2701.385214  	97.733126 
2702.822121  	97.725748 
2704.259028  	97.733480 
2705.695935  	97.718691 
2707.132842  	97.688115 
2708.569749  	97.674616 
2710.006656  	97.675107 
2711.443564  	97.690718 
2712.880471  	97.685740 
2714.317378  	97.653794 
2715.754285  	97.645294 
2717.191192  	97.661531 
2718.628099  	97.672251 
2720.065006  	97.649837 
2721.501913  	97.613120 
2722.938820  	97.608356 
2724.375727  	97.609423 
2725.812634  	97.598311 
2727.249541  	97.580007 
2728.686448  	97.540275 
2730.123355  	97.519476 
2731.560262  	97.521843 
2732.997169  	97.512998 
2734.434076  	97.514513 
2735.870983  	97.513596 
2737.307890  	97.505102 
2738.744797  	97.496977 
2740.181704  	97.455717 
2741.618611  	97.432403 
2743.055518  	97.445471 
2744.492425  	97.423389 
2745.929332  	97.402341 
2747.366239  	97.408154 
2748.803146  	97.397159 
2750.240053  	97.378277 
2751.676960  	97.354628 
2753.113867  	97.336399 
2754.550774  	97.329597 
2755.987681  	97.311531 
2757.424588  	97.308282 
2758.861495  	97.310773 
2760.298402  	97.295857 
2761.735310  	97.291470 
2763.172217  	97.268737 
2764.609124  	97.228064 
2766.046031  	97.211285 
2767.482938  	97.192943 
2768.919845  	97.177967 
2770.356752  	97.170099 
2771.793659  	97.149656 
2773.230566  	97.148552 
2774.667473  	97.146520 
2776.104380  	97.119075 
2777.541287  	97.090996 
2778.978194  	97.044247 
2780.415101  	97.008092 
2781.852008  	97.019267 
2783.288915  	97.022809 
2784.725822  	97.003044 
2786.162729  	96.983207 
2787.599636  	96.960989 
2789.036543  	96.928335 
2790.473450  	96.887479 
2791.910357  	96.870849 
2793.347264  	96.861534 
2794.784171  	96.834134 
2796.221078  	96.835166 
2797.657985  	96.831742 
2799.094892  	96.785444 
2800.531799  	96.762602 
2801.968706  	96.753107 
2803.405613  	96.725806 
2804.842520  	96.706756 
2806.279427  	96.670654 
2807.716334  	96.628691 
2809.153241  	96.621738 
2810.590148  	96.608276 
2812.027056  	96.575841 
2813.463963  	96.562102 
2814.900870  	96.543203 
2816.337777  	96.496069 
2817.774684  	96.476981 
2819.211591  	96.490010 
2820.648498  	96.456472 
2822.085405  	96.399083 
2823.522312  	96.372897 
2824.959219  	96.342458 
2826.396126  	96.310042 
2827.833033  	96.281549 
2829.269940  	96.242712 
2830.706847  	96.235103 
2832.143754  	96.223621 
2833.580661  	96.162666 
2835.017568  	96.109587 
2836.454475  	96.068574 
2837.891382  	96.033974 
2839.328289  	96.024665 
2840.765196  	96.003025 
2842.202103  	95.971782 
2843.639010  	95.939250 
2845.075917  	95.893695 
2846.512824  	95.864467 
2847.949731  	95.825559 
2849.386638  	95.767583 
2850.823545  	95.734648 
2852.260452  	95.700229 
2853.697359  	95.661658 
2855.134266  	95.632653 
2856.571173  	95.590570 
2858.008080  	95.558253 
2859.444987  	95.523637 
2860.881895  	95.471994 
2862.318802  	95.431573 
2863.755709  	95.382918 
2865.192616  	95.349402 
2866.629523  	95.326642 
2868.066430  	95.246648 
2869.503337  	95.184444 
2870.940244  	95.170534 
2872.377151  	95.117888 
2873.814058  	95.064410 
2875.250965  	95.028702 
2876.687872  	94.969193 
2878.124779  	94.918861 
2879.561686  	94.872505 
2880.998593  	94.813352 
2882.435500  	94.753340 
2883.872407  	94.689084 
2885.309314  	94.657124 
2886.746221  	94.644266 
2888.183128  	94.589776 
2889.620035  	94.514889 
2891.056942  	94.441641 
2892.493849  	94.368781 
2893.930756  	94.318136 
2895.367663  	94.292840 
2896.804570  	94.265923 
2898.241477  	94.196033 
2899.678384  	94.107187 
2901.115291  	94.052555 
2902.552198  	94.002447 
2903.989105  	93.944232 
2905.426012  	93.880577 
2906.862919  	93.783765 
2908.299826  	93.700589 
2909.736733  	93.648126 
2911.173641  	93.581514 
2912.610548  	93.521286 
2914.047455  	93.465006 
2915.484362  	93.394946 
2916.921269  	93.328979 
2918.358176  	93.251141 
2919.795083  	93.174056 
2921.231990  	93.100819 
2922.668897  	92.993156 
2924.105804  	92.894203 
2925.542711  	92.834692 
2926.979618  	92.775006 
2928.416525  	92.704327 
2929.853432  	92.625069 
2931.290339  	92.545979 
2932.727246  	92.454533 
2934.164153  	92.337964 
2935.601060  	92.249755 
2937.037967  	92.188485 
2938.474874  	92.104922 
2939.911781  	92.019023 
2941.348688  	91.946949 
2942.785595  	91.879733 
2944.222502  	91.792328 
2945.659409  	91.669186 
2947.096316  	91.566279 
2948.533223  	91.489834 
2949.970130  	91.394898 
2951.407037  	91.299204 
2952.843944  	91.199459 
2954.280851  	91.087435 
2955.717758  	90.981738 
2957.154665  	90.855050 
2958.591572  	90.713102 
2960.028479  	90.601759 
2961.465387  	90.515348 
2962.902294  	90.416228 
2964.339201  	90.293463 
2965.776108  	90.191788 
2967.213015  	90.098597 
2968.649922  	89.958326 
2970.086829  	89.830992 
2971.523736  	89.735651 
2972.960643  	89.607997 
2974.397550  	89.479787 
2975.834457  	89.365905 
2977.271364  	89.232377 
2978.708271  	89.095431 
2980.145178  	88.964381 
2981.582085  	88.849322 
2983.018992  	88.733278 
2984.455899  	88.584698 
2985.892806  	88.446718 
2987.329713  	88.322729 
2988.766620  	88.172452 
2990.203527  	88.018187 
2991.640434  	87.892306 
2993.077341  	87.795860 
2994.514248  	87.665310 
2995.951155  	87.481279 
2997.388062  	87.332902 
2998.824969  	87.206877 
3000.261876  	87.056743 
3001.698783  	86.909786 
3003.135690  	86.739876 
3004.572597  	86.567389 
3006.009504  	86.427426 
3007.446411  	86.272173 
3008.883318  	86.106360 
3010.320226  	85.927329 
3011.757133  	85.741975 
3013.194040  	85.584988 
3014.630947  	85.394256 
3016.067854  	85.197839 
3017.504761  	85.039549 
3018.941668  	84.841565 
3020.378575  	84.654917 
3021.815482  	84.495380 
3023.252389  	84.306337 
3024.689296  	84.160825 
3026.126203  	83.999602 
3027.563110  	83.772663 
3029.000017  	83.582945 
3030.436924  	83.376257 
3031.873831  	83.148446 
3033.310738  	82.968699 
3034.747645  	82.762909 
3036.184552  	82.553635 
3037.621459  	82.370206 
3039.058366  	82.165151 
3040.495273  	81.967422 
3041.932180  	81.759231 
3043.369087  	81.531054 
3044.805994  	81.299297 
3046.242901  	81.051072 
3047.679808  	80.846892 
3049.116715  	80.652383 
3050.553622  	80.410783 
3051.990529  	80.187153 
3053.427436  	79.956215 
3054.864343  	79.723137 
3056.301250  	79.503917 
3057.738157  	79.232077 
3059.175064  	78.981448 
3060.611972  	78.746682 
3062.048879  	78.470235 
3063.485786  	78.245765 
3064.922693  	78.014744 
3066.359600  	77.742670 
3067.796507  	77.502199 
3069.233414  	77.226758 
3070.670321  	76.964341 
3072.107228  	76.735192 
3073.544135  	76.460442 
3074.981042  	76.226169 
3076.417949  	75.988033 
3077.854856  	75.684916 
3079.291763  	75.409037 
3080.728670  	75.119940 
3082.165577  	74.841211 
3083.602484  	74.594289 
3085.039391  	74.300314 
3086.476298  	74.031386 
3087.913205  	73.760108 
3089.350112  	73.447862 
3090.787019  	73.163509 
3092.223926  	72.840867 
3093.660833  	72.551295 
3095.097740  	72.329100 
3096.534647  	72.045476 
3097.971554  	71.792088 
3099.408461  	71.512602 
3100.845368  	71.127377 
3102.282275  	70.825087 
3103.719182  	70.538902 
3105.156089  	70.215447 
3106.592996  	69.940273 
3108.029903  	69.628571 
3109.466811  	69.339950 
3110.903718  	69.067834 
3112.340625  	68.731145 
3113.777532  	68.444218 
3115.214439  	68.119370 
3116.651346  	67.740706 
3118.088253  	67.462671 
3119.525160  	67.188944 
3120.962067  	66.902231 
3122.398974  	66.601703 
3123.835881  	66.250599 
3125.272788  	65.955466 
3126.709695  	65.626579 
3128.146602  	65.278796 
3129.583509  	65.022814 
3131.020416  	64.707257 
3132.457323  	64.395746 
3133.894230  	64.126320 
3135.331137  	63.778938 
3136.768044  	63.480835 
3138.204951  	63.185997 
3139.641858  	62.854023 
3141.078765  	62.581131 
3142.515672  	62.252309 
3143.952579  	61.952085 
3145.389486  	61.698072 
3146.826393  	61.362169 
3148.263300  	61.112209 
3149.700207  	60.834751 
3151.137114  	60.435183 
3152.574021  	60.138068 
3154.010928  	59.850975 
3155.447835  	59.593640 
3156.884742  	59.395466 
3158.321649  	59.058308 
3159.758557  	58.748994 
3161.195464  	58.493559 
3162.632371  	58.179768 
3164.069278  	57.923213 
3165.506185  	57.625997 
3166.943092  	57.358255 
3168.379999  	57.163084 
3169.816906  	56.826077 
3171.253813  	56.557437 
3172.690720  	56.376641 
3174.127627  	56.091897 
3175.564534  	55.860934 
3177.001441  	55.612948 
3178.438348  	55.350594 
3179.875255  	55.155093 
3181.312162  	54.848890 
3182.749069  	54.591007 
3184.185976  	54.397598 
3185.622883  	54.127959 
3187.059790  	53.949434 
3188.496697  	53.726633 
3189.933604  	53.463856 
3191.370511  	53.321628 
3192.807418  	53.100448 
3194.244325  	52.903478 
3195.681232  	52.746410 
3197.118139  	52.492277 
3198.555046  	52.351003 
3199.991953  	52.180527 
3201.428860  	51.941590 
3202.865767  	51.826072 
3204.302674  	51.640114 
3205.739581  	51.481451 
3207.176488  	51.369293 
3208.613395  	51.135022 
3210.050303  	51.024098 
3211.487210  	50.905587 
3212.924117  	50.690580 
3214.361024  	50.607211 
3215.797931  	50.461107 
3217.234838  	50.330036 
3218.671745  	50.264205 
3220.108652  	50.064703 
3221.545559  	49.990385 
3222.982466  	49.931639 
3224.419373  	49.748647 
3225.856280  	49.695481 
3227.293187  	49.590042 
3228.730094  	49.495432 
3230.167001  	49.523382 
3231.603908  	49.409545 
3233.040815  	49.316012 
3234.477722  	49.220945 
3235.914629  	49.079391 
3237.351536  	49.117048 
3238.788443  	49.054119 
3240.225350  	48.952545 
3241.662257  	48.987316 
3243.099164  	48.877501 
3244.536071  	48.834258 
3245.972978  	48.826877 
3247.409885  	48.660806 
3248.846792  	48.670176 
3250.283699  	48.678124 
3251.720606  	48.596230 
3253.157513  	48.632768 
3254.594420  	48.562065 
3256.031327  	48.506424 
3257.468234  	48.524388 
3258.905142  	48.457061 
3260.342049  	48.503075 
3261.778956  	48.504427 
3263.215863  	48.448210 
3264.652770  	48.518566 
3266.089677  	48.462344 
3267.526584  	48.422438 
3268.963491  	48.458056 
3270.400398  	48.378454 
3271.837305  	48.418531 
3273.274212  	48.441438 
3274.711119  	48.377332 
3276.148026  	48.436986 
3277.584933  	48.401719 
3279.021840  	48.398252 
3280.458747  	48.487797 
3281.895654  	48.446377 
3283.332561  	48.488484 
3284.769468  	48.485174 
3286.206375  	48.376350 
3287.643282  	48.436324 
3289.080189  	48.418773 
3290.517096  	48.379454 
3291.954003  	48.457461 
3293.390910  	48.427486 
3294.827817  	48.447248 
3296.264724  	48.458238 
3297.701631  	48.391663 
3299.138538  	48.445783 
3300.575445  	48.427546 
3302.012352  	48.438563 
3303.449259  	48.530428 
3304.886166  	48.436993 
3306.323073  	48.407507 
3307.759980  	48.409368 
3309.196888  	48.356703 
3310.633795  	48.487759 
3312.070702  	48.505431 
3313.507609  	48.440976 
3314.944516  	48.486355 
3316.381423  	48.428256 
3317.818330  	48.480783 
3319.255237  	48.538036 
3320.692144  	48.418806 
3322.129051  	48.497404 
3323.565958  	48.567493 
3325.002865  	48.515971 
3326.439772  	48.571438 
3327.876679  	48.561131 
3329.313586  	48.587123 
3330.750493  	48.621245 
3332.187400  	48.563051 
3333.624307  	48.656845 
3335.061214  	48.664627 
3336.498121  	48.611739 
3337.935028  	48.727057 
3339.371935  	48.703055 
3340.808842  	48.718130 
3342.245749  	48.830385 
3343.682656  	48.785994 
3345.119563  	48.828742 
3346.556470  	48.845499 
3347.993377  	48.807965 
3349.430284  	48.925031 
3350.867191  	48.919892 
3352.304098  	48.943516 
3353.741005  	49.074335 
3355.177912  	49.057914 
3356.614819  	49.149949 
3358.051726  	49.240650 
3359.488634  	49.229954 
3360.925541  	49.375575 
3362.362448  	49.446157 
3363.799355  	49.490470 
3365.236262  	49.595112 
3366.673169  	49.575829 
3368.110076  	49.663631 
3369.546983  	49.748675 
3370.983890  	49.775723 
3372.420797  	49.977637 
3373.857704  	50.075855 
3375.294611  	50.160302 
3376.731518  	50.331301 
3378.168425  	50.328999 
3379.605332  	50.432223 
3381.042239  	50.590508 
3382.479146  	50.644796 
3383.916053  	50.834040 
3385.352960  	50.949539 
3386.789867  	51.051463 
3388.226774  	51.252559 
3389.663681  	51.293937 
3391.100588  	51.412490 
3392.537495  	51.574081 
3393.974402  	51.650637 
3395.411309  	51.893496 
3396.848216  	52.051285 
3398.285123  	52.151312 
3399.722030  	52.341484 
3401.158937  	52.391895 
3402.595844  	52.572063 
3404.032751  	52.807542 
3405.469658  	52.887952 
3406.906565  	53.134376 
3408.343473  	53.327025 
3409.780380  	53.454344 
3411.217287  	53.728452 
3412.654194  	53.846125 
3414.091101  	54.019698 
3415.528008  	54.313433 
3416.964915  	54.450380 
3418.401822  	54.653620 
3419.838729  	54.822350 
3421.275636  	54.974496 
3422.712543  	55.313507 
3424.149450  	55.494611 
3425.586357  	55.639949 
3427.023264  	55.879250 
3428.460171  	56.029666 
3429.897078  	56.273535 
3431.333985  	56.475524 
3432.770892  	56.625342 
3434.207799  	56.909136 
3435.644706  	57.048919 
3437.081613  	57.218509 
3438.518520  	57.526358 
3439.955427  	57.713146 
3441.392334  	57.994820 
3442.829241  	58.280300 
3444.266148  	58.440313 
3445.703055  	58.673861 
3447.139962  	58.840867 
3448.576869  	59.069669 
3450.013776  	59.357309 
3451.450683  	59.476653 
3452.887590  	59.715964 
3454.324497  	59.978069 
3455.761404  	60.127949 
3457.198311  	60.415873 
3458.635219  	60.649923 
3460.072126  	60.837780 
3461.509033  	61.068957 
3462.945940  	61.205022 
3464.382847  	61.452676 
3465.819754  	61.692239 
3467.256661  	61.835263 
3468.693568  	62.122217 
3470.130475  	62.355734 
3471.567382  	62.581215 
3473.004289  	62.864533 
3474.441196  	63.016206 
3475.878103  	63.284069 
3477.315010  	63.561073 
3478.751917  	63.680368 
3480.188824  	63.923105 
3481.625731  	64.176951 
3483.062638  	64.438872 
3484.499545  	64.711113 
3485.936452  	64.799173 
3487.373359  	65.007696 
3488.810266  	65.301290 
3490.247173  	65.501664 
3491.684080  	65.815095 
3493.120987  	66.027870 
3494.557894  	66.211015 
3495.994801  	66.542647 
3497.431708  	66.716186 
3498.868615  	66.893086 
3500.305522  	67.127188 
3501.742429  	67.295686 
3503.179336  	67.621242 
3504.616243  	67.863749 
3506.053150  	68.021963 
3507.490058  	68.337700 
3508.926965  	68.561604 
3510.363872  	68.819437 
3511.800779  	69.109502 
3513.237686  	69.217824 
3514.674593  	69.457896 
3516.111500  	69.734387 
3517.548407  	69.897824 
3518.985314  	70.155844 
3520.422221  	70.380511 
3521.859128  	70.615904 
3523.296035  	70.892906 
3524.732942  	71.056860 
3526.169849  	71.304774 
3527.606756  	71.561917 
3529.043663  	71.761784 
3530.480570  	72.030699 
3531.917477  	72.233804 
3533.354384  	72.501773 
3534.791291  	72.791231 
3536.228198  	72.938412 
3537.665105  	73.218645 
3539.102012  	73.480092 
3540.538919  	73.599629 
3541.975826  	73.837982 
3543.412733  	74.061904 
3544.849640  	74.271369 
3546.286547  	74.530950 
3547.723454  	74.756081 
3549.160361  	75.007076 
3550.597268  	75.230961 
3552.034175  	75.417041 
3553.471082  	75.677524 
3554.907989  	75.929339 
3556.344896  	76.164309 
3557.781804  	76.418067 
3559.218711  	76.589675 
3560.655618  	76.816508 
3562.092525  	77.076608 
3563.529432  	77.284003 
3564.966339  	77.517537 
3566.403246  	77.719150 
3567.840153  	77.935654 
3569.277060  	78.196678 
3570.713967  	78.340885 
3572.150874  	78.526576 
3573.587781  	78.742468 
3575.024688  	78.911812 
3576.461595  	79.205565 
3577.898502  	79.438303 
3579.335409  	79.613829 
3580.772316  	79.909337 
3582.209223  	80.131147 
3583.646130  	80.321829 
3585.083037  	80.493219 
3586.519944  	80.633019 
3587.956851  	81.013649 
3589.393758  	81.312377 
3590.830665  	81.387055 
3592.267572  	81.542459 
3593.704479  	81.699866 
3595.141386  	81.888609 
3596.578293  	82.075159 
3598.015200  	82.224074 
3599.452107  	82.488864 
3600.889014  	82.716367 
3602.325921  	82.902839 
3603.762828  	83.094629 
3605.199735  	83.153164 
3606.636642  	83.345060 
3608.073550  	83.708420 
3609.510457  	83.937287 
3610.947364  	84.192612 
3612.384271  	84.413406 
3613.821178  	84.574207 
3615.258085  	84.836304 
3616.694992  	84.951444 
3618.131899  	85.033626 
3619.568806  	85.299776 
3621.005713  	85.497573 
3622.442620  	85.662176 
3623.879527  	85.884126 
3625.316434  	86.077476 
3626.753341  	86.192098 
3628.190248  	86.310166 
3629.627155  	86.768821 
3631.064062  	87.060467 
3632.500969  	87.098878 
3633.937876  	87.266324 
3635.374783  	87.364558 
3636.811690  	87.511694 
3638.248597  	87.863806 
3639.685504  	88.128634 
3641.122411  	88.459512 
3642.559318  	88.915446 
3643.996225  	89.104627 
3645.433132  	89.226996 
3646.870039  	89.400223 
3648.306946  	89.597306 
3649.743853  	90.124317 
3651.180760  	90.450914 
3652.617667  	90.411647 
3654.054574  	90.510481 
3655.491481  	90.694643 
3656.928389  	91.004063 
3658.365296  	91.204902 
3659.802203  	91.351965 
3661.239110  	91.700747 
3662.676017  	92.026572 
3664.112924  	92.297092 
3665.549831  	92.510557 
3666.986738  	92.656667 
3668.423645  	92.921965 
3669.860552  	93.349495 
3671.297459  	93.564318 
3672.734366  	93.649484 
3674.171273  	93.862063 
3675.608180  	94.097375 
3677.045087  	94.161314 
3678.481994  	94.207497 
3679.918901  	94.329007 
3681.355808  	94.562729 
3682.792715  	94.823448 
3684.229622  	95.001499 
3685.666529  	95.116471 
3687.103436  	95.315192 
3688.540343  	95.600345 
3689.977250  	95.786987 
3691.414157  	95.883582 
3692.851064  	95.918552 
3694.287971  	96.011992 
3695.724878  	96.223986 
3697.161785  	96.345901 
3698.598692  	96.461887 
3700.035599  	96.649121 
3701.472506  	96.730212 
3702.909413  	96.746021 
3704.346320  	96.851080 
3705.783227  	96.916909 
3707.220135  	96.986306 
3708.657042  	97.062982 
3710.093949  	97.099358 
3711.530856  	97.220309 
3712.967763  	97.346666 
3714.404670  	97.351137 
3715.841577  	97.400215 
3717.278484  	97.476212 
3718.715391  	97.467910 
3720.152298  	97.364634 
3721.589205  	97.446861 
3723.026112  	97.505385 
3724.463019  	97.454822 
3725.899926  	97.632990 
3727.336833  	97.674757 
3728.773740  	97.532258 
3730.210647  	97.777695 
3731.647554  	98.075112 
3733.084461  	97.990523 
3734.521368  	97.986813 
3735.958275  	97.983101 
3737.395182  	97.798625 
3738.832089  	97.882532 
3740.268996  	97.853262 
3741.705903  	97.766297 
3743.142810  	98.034144 
3744.579717  	98.439736 
3746.016624  	98.299910 
3747.453531  	98.276535 
3748.890438  	98.407412 
3750.327345  	98.347023 
3751.764252  	98.316054 
3753.201159  	98.131665 
3754.638066  	97.849347 
3756.074973  	97.982152 
3757.511881  	98.177338 
3758.948788  	98.091085 
3760.385695  	98.019327 
3761.822602  	97.978354 
3763.259509  	98.028381 
3764.696416  	98.272302 
3766.133323  	98.269854 
3767.570230  	98.034860 
3769.007137  	98.128179 
3770.444044  	98.225883 
3771.880951  	98.084853 
3773.317858  	98.087266 
3774.754765  	98.146630 
3776.191672  	98.150914 
3777.628579  	98.160737 
3779.065486  	98.162376 
3780.502393  	98.074096 
3781.939300  	98.074279 
3783.376207  	98.176844 
3784.813114  	98.165321 
3786.250021  	98.064405 
3787.686928  	98.121688 
3789.123835  	98.210061 
3790.560742  	98.235848 
3791.997649  	98.294357 
3793.434556  	98.299749 
3794.871463  	98.320941 
3796.308370  	98.384981 
3797.745277  	98.295086 
3799.182184  	98.318145 
3800.619091  	98.547501 
3802.055998  	98.582625 
3803.492905  	98.286659 
3804.929812  	98.276847 
3806.366720  	98.399503 
3807.803627  	98.446759 
3809.240534  	98.358899 
3810.677441  	98.330043 
3812.114348  	98.303226 
3813.551255  	98.337254 
3814.988162  	98.568259 
3816.425069  	98.715863 
3817.861976  	98.464289 
3819.298883  	98.483017 
3820.735790  	98.768678 
3822.172697  	98.695408 
3823.609604  	98.340376 
3825.046511  	98.358003 
3826.483418  	98.465600 
3827.920325  	98.429662 
3829.357232  	98.423533 
3830.794139  	98.487038 
3832.231046  	98.483031 
3833.667953  	98.549761 
3835.104860  	98.681057 
3836.541767  	98.696451 
3837.978674  	98.639841 
3839.415581  	98.532608 
3840.852488  	98.441063 
3842.289395  	98.468003 
3843.726302  	98.441387 
3845.163209  	98.413022 
3846.600116  	98.533700 
3848.037023  	98.638685 
3849.473930  	98.632100 
3850.910837  	98.645581 
3852.347744  	98.746638 
3853.784651  	98.814688 
3855.221558  	98.609193 
3856.658466  	98.491722 
3858.095373  	98.421874 
3859.532280  	98.444264 
3860.969187  	98.501701 
3862.406094  	98.490215 
3863.843001  	98.558007 
3865.279908  	98.687870 
3866.716815  	98.645936 
3868.153722  	98.660104 
3869.590629  	98.694772 
3871.027536  	98.409149 
3872.464443  	98.361130 
3873.901350  	98.488227 
3875.338257  	98.458682 
3876.775164  	98.460718 
3878.212071  	98.532999 
3879.648978  	98.553672 
3881.085885  	98.502839 
3882.522792  	98.414245 
3883.959699  	98.454158 
3885.396606  	98.556292 
3886.833513  	98.473022 
3888.270420  	98.379145 
3889.707327  	98.420172 
3891.144234  	98.452086 
3892.581141  	98.466283 
3894.018048  	98.514404 
3895.454955  	98.543520 
3896.891862  	98.550757 
3898.328769  	98.599201 
3899.765676  	98.643007 
3901.202583  	98.536519 
3902.639490  	98.446029 
3904.076397  	98.465309 
3905.513305  	98.452208 
3906.950212  	98.395466 
3908.387119  	98.353795 
3909.824026  	98.356503 
3911.260933  	98.503285 
3912.697840  	98.535384 
3914.134747  	98.508499 
3915.571654  	98.547757 
3917.008561  	98.587296 
3918.445468  	98.581360 
3919.882375  	98.559397 
3921.319282  	98.477810 
3922.756189  	98.471234 
3924.193096  	98.556282 
3925.630003  	98.560667 
3927.066910  	98.537474 
3928.503817  	98.547705 
3929.940724  	98.543067 
3931.377631  	98.524903 
3932.814538  	98.508872 
3934.251445  	98.470270 
3935.688352  	98.478381 
3937.125259  	98.501350 
3938.562166  	98.508301 
3939.999073  	98.501797 
3941.435980  	98.568506 
3942.872887  	98.616881 
3944.309794  	98.574537 
3945.746701  	98.618411 
3947.183608  	98.675221 
3948.620515  	98.592557 
3950.057422  	98.509708 
3951.494329  	98.501470 
3952.931236  	98.535891 
3954.368143  	98.602040 
3955.805051  	98.604776 
3957.241958  	98.589532 
3958.678865  	98.589719 
3960.115772  	98.567011 
3961.552679  	98.538879 
3962.989586  	98.536848 
3964.426493  	98.564772 
3965.863400  	98.612093 
3967.300307  	98.621003 
3968.737214  	98.632632 
3970.174121  	98.660668 
3971.611028  	98.654639 
3973.047935  	98.663055 
3974.484842  	98.663749 
3975.921749  	98.621410 
3977.358656  	98.589414 
3978.795563  	98.572464 
3980.232470  	98.595873 
3981.669377  	98.623983 
3983.106284  	98.606690 
3984.543191  	98.632930 
3985.980098  	98.655487 
3987.417005  	98.622374 
3988.853912  	98.653364 
3990.290819  	98.697637 
3991.727726  	98.658473 
3993.164633  	98.602353 
3994.601540  	98.589505 
3996.038447  	98.630443 
3997.475354  	98.642983 
3998.912261  	98.605570 
4000.349168  	98.623898 